STEVAL-MKI197V1 (LSM6DSOX)

A_X [mg] 	 A_Y [mg] 	 A_Z [mg] 	G_X [dps] 	 G_Y [dps] 	 G_Z [dps] 	
-909 	 210 	 -512 	0.805 	 -22.855 	 -21.315 	
-900 	 214 	 -518 	0 	 -25.55 	 -18.9 	
-891 	 213 	 -520 	-0.875 	 -28.105 	 -16.695 	
-885 	 203 	 -521 	-1.785 	 -30.45 	 -14.98 	
-883 	 193 	 -518 	-2.59 	 -32.62 	 -13.86 	
-882 	 186 	 -514 	-3.36 	 -34.615 	 -13.44 	
-880 	 183 	 -506 	-4.165 	 -36.4 	 -13.79 	
-880 	 174 	 -500 	-5.005 	 -38.15 	 -14.805 	
-869 	 163 	 -495 	-5.705 	 -39.76 	 -16.485 	
-858 	 161 	 -495 	-6.335 	 -41.055 	 -18.585 	
-855 	 161 	 -495 	-6.895 	 -42.245 	 -20.86 	
-850 	 160 	 -494 	-7.42 	 -43.085 	 -22.89 	
-844 	 165 	 -487 	-7.77 	 -44.03 	 -24.465 	
-833 	 169 	 -481 	-8.26 	 -44.695 	 -25.235 	
-822 	 163 	 -480 	-8.68 	 -45.255 	 -24.885 	
-825 	 161 	 -483 	-8.995 	 -45.64 	 -23.45 	
-831 	 165 	 -484 	-9.135 	 -45.955 	 -21 	
-826 	 174 	 -483 	-9.38 	 -46.2 	 -17.815 	
-823 	 173 	 -480 	-9.555 	 -46.27 	 -14.07 	
-826 	 172 	 -476 	-9.66 	 -46.235 	 -10.395 	
-820 	 169 	 -473 	-9.905 	 -46.13 	 -6.72 	
-813 	 160 	 -474 	-10.185 	 -45.85 	 -3.64 	
-808 	 153 	 -472 	-10.15 	 -45.255 	 -1.26 	
-808 	 146 	 -468 	-10.22 	 -44.555 	 0.245 	
-809 	 140 	 -460 	-10.325 	 -43.855 	 0.91 	
-800 	 136 	 -460 	-10.43 	 -43.05 	 0.735 	
-795 	 131 	 -457 	-10.395 	 -41.965 	 -0.07 	
-796 	 127 	 -452 	-10.325 	 -40.81 	 -1.295 	
-799 	 128 	 -448 	-10.15 	 -39.62 	 -2.59 	
-796 	 132 	 -440 	-9.975 	 -38.43 	 -3.745 	
-802 	 137 	 -436 	-9.905 	 -36.89 	 -4.62 	
-813 	 139 	 -428 	-9.59 	 -35.56 	 -4.865 	
-817 	 143 	 -429 	-9.38 	 -34.405 	 -4.655 	
-814 	 151 	 -426 	-9.03 	 -33.11 	 -3.885 	
-823 	 154 	 -421 	-8.645 	 -31.605 	 -2.625 	
-836 	 156 	 -417 	-8.295 	 -30.31 	 -1.015 	
-836 	 159 	 -417 	-7.98 	 -29.12 	 0.91 	
-837 	 161 	 -418 	-7.77 	 -27.825 	 2.975 	
-849 	 162 	 -414 	-7.42 	 -26.46 	 5.11 	
-858 	 160 	 -409 	-7.035 	 -25.305 	 6.965 	
-854 	 158 	 -407 	-6.72 	 -24.22 	 8.575 	
-860 	 158 	 -406 	-6.44 	 -22.96 	 9.765 	
-871 	 155 	 -401 	-6.055 	 -21.77 	 10.395 	
-879 	 151 	 -400 	-5.67 	 -20.755 	 10.43 	
-876 	 148 	 -401 	-5.145 	 -19.915 	 10.115 	
-880 	 152 	 -395 	-4.69 	 -18.725 	 9.555 	
-898 	 154 	 -388 	-4.2 	 -17.64 	 8.925 	
-905 	 150 	 -381 	-3.885 	 -16.8 	 8.225 	
-899 	 148 	 -383 	-3.465 	 -16.17 	 7.385 	
-886 	 149 	 -382 	-2.94 	 -15.435 	 6.44 	
-886 	 149 	 -382 	-2.45 	 -14.385 	 5.425 	
-893 	 152 	 -382 	-1.96 	 -13.51 	 4.585 	
-895 	 157 	 -383 	-1.47 	 -12.88 	 4.095 	
-890 	 161 	 -383 	-0.91 	 -12.425 	 4.13 	
-888 	 163 	 -385 	-0.455 	 -11.62 	 4.62 	
-898 	 165 	 -386 	0 	 -10.92 	 5.355 	
-896 	 161 	 -387 	0.385 	 -10.5 	 6.02 	
-886 	 156 	 -386 	0.84 	 -10.115 	 6.545 	
-881 	 157 	 -385 	1.295 	 -9.555 	 6.545 	
-876 	 158 	 -379 	1.645 	 -8.96 	 6.475 	
-871 	 159 	 -379 	2.03 	 -8.54 	 6.44 	
-876 	 162 	 -381 	2.415 	 -8.085 	 7 	
-884 	 167 	 -381 	2.695 	 -7.7 	 8.26 	
-898 	 173 	 -377 	3.01 	 -7.385 	 10.115 	
-900 	 177 	 -377 	3.185 	 -7.21 	 12.215 	
-899 	 172 	 -380 	3.325 	 -7.035 	 14.035 	
-898 	 166 	 -385 	3.465 	 -6.79 	 15.015 	
-895 	 168 	 -386 	3.64 	 -6.65 	 15.015 	
-891 	 170 	 -393 	3.675 	 -6.44 	 14 	
-896 	 173 	 -392 	3.57 	 -6.09 	 12.355 	
-908 	 174 	 -386 	3.57 	 -5.81 	 10.43 	
-921 	 180 	 -378 	3.465 	 -5.74 	 8.61 	
-929 	 188 	 -378 	3.185 	 -5.775 	 7 	
-936 	 188 	 -374 	3.115 	 -5.915 	 5.845 	
-940 	 192 	 -372 	3.01 	 -6.195 	 5.285 	
-950 	 198 	 -372 	2.8 	 -6.3 	 5.25 	
-959 	 198 	 -370 	2.695 	 -6.685 	 5.845 	
-963 	 200 	 -369 	2.66 	 -7.28 	 6.685 	
-962 	 204 	 -368 	2.52 	 -7.805 	 7.805 	
-959 	 208 	 -365 	2.485 	 -8.47 	 9.1 	
-960 	 201 	 -361 	2.345 	 -8.96 	 10.43 	
-970 	 193 	 -360 	2.24 	 -9.59 	 11.655 	
-972 	 192 	 -361 	2.345 	 -10.5 	 12.74 	
-965 	 195 	 -363 	2.345 	 -11.34 	 13.37 	
-959 	 189 	 -366 	2.24 	 -12.075 	 13.44 	
-958 	 188 	 -370 	2.24 	 -12.74 	 12.915 	
-957 	 186 	 -370 	2.205 	 -13.37 	 11.69 	
-956 	 186 	 -371 	2.24 	 -14 	 10.325 	
-959 	 193 	 -367 	2.135 	 -14.63 	 8.75 	
-962 	 194 	 -367 	1.96 	 -15.365 	 7.385 	
-962 	 196 	 -364 	2.065 	 -16.24 	 6.09 	
-966 	 198 	 -363 	1.995 	 -16.975 	 5.18 	
-966 	 203 	 -363 	1.96 	 -17.815 	 4.655 	
-965 	 205 	 -360 	1.925 	 -18.62 	 4.62 	
-967 	 206 	 -354 	2.065 	 -19.565 	 5.145 	
-970 	 208 	 -350 	2.17 	 -20.44 	 6.16 	
-977 	 199 	 -348 	2.135 	 -21.42 	 7.595 	
-976 	 196 	 -347 	2.38 	 -22.68 	 9.31 	
-964 	 197 	 -349 	2.8 	 -23.94 	 11.13 	
-958 	 201 	 -350 	3.22 	 -24.99 	 13.125 	
-967 	 201 	 -347 	3.675 	 -26.145 	 15.365 	
-982 	 198 	 -335 	4.06 	 -27.335 	 17.92 	
-989 	 197 	 -320 	4.375 	 -28.7 	 20.51 	
-998 	 186 	 -317 	4.655 	 -29.96 	 22.68 	
-999 	 175 	 -324 	5.005 	 -31.325 	 23.695 	
-986 	 173 	 -337 	5.46 	 -32.725 	 23.03 	
-965 	 182 	 -348 	5.845 	 -34.055 	 20.685 	
-955 	 178 	 -350 	6.09 	 -35.07 	 17.15 	
-956 	 177 	 -345 	6.335 	 -35.77 	 12.845 	
-963 	 187 	 -342 	6.44 	 -36.68 	 8.575 	
-962 	 196 	 -343 	6.37 	 -37.73 	 4.83 	
-953 	 202 	 -348 	6.3 	 -38.815 	 2.065 	
-943 	 211 	 -353 	6.44 	 -39.62 	 0.525 	
-943 	 223 	 -354 	6.51 	 -40.355 	 0.175 	
-944 	 232 	 -359 	6.44 	 -41.23 	 1.26 	
-935 	 229 	 -359 	6.545 	 -42.455 	 3.64 	
-925 	 230 	 -362 	6.755 	 -43.61 	 7.035 	
-927 	 235 	 -358 	6.965 	 -44.52 	 11.305 	
-929 	 231 	 -351 	7.245 	 -45.57 	 16.275 	
-928 	 225 	 -345 	7.385 	 -46.69 	 21.56 	
-940 	 223 	 -334 	7.805 	 -47.705 	 26.705 	
-961 	 218 	 -309 	8.155 	 -48.615 	 31.395 	
-971 	 208 	 -302 	8.155 	 -49.7 	 34.93 	
-973 	 191 	 -304 	8.19 	 -50.925 	 36.68 	
-963 	 189 	 -314 	8.75 	 -52.22 	 36.085 	
-953 	 199 	 -317 	9.135 	 -53.095 	 33.355 	
-952 	 199 	 -306 	8.89 	 -53.445 	 28.7 	
-967 	 185 	 -299 	8.505 	 -53.655 	 22.68 	
-976 	 190 	 -297 	8.47 	 -54.32 	 15.68 	
-964 	 211 	 -304 	8.33 	 -55.09 	 8.4 	
-957 	 225 	 -309 	7.84 	 -55.405 	 1.505 	
-973 	 233 	 -304 	7.35 	 -55.475 	 -4.445 	
-985 	 254 	 -290 	7.035 	 -55.72 	 -8.82 	
-985 	 279 	 -281 	6.475 	 -56.14 	 -11.375 	
-992 	 283 	 -274 	5.565 	 -56.49 	 -12.005 	
-998 	 278 	 -268 	4.725 	 -56.945 	 -10.92 	
-993 	 279 	 -267 	4.025 	 -57.47 	 -8.785 	
-978 	 287 	 -275 	3.57 	 -58.065 	 -5.705 	
-974 	 287 	 -265 	2.835 	 -58.1 	 -2.135 	
-978 	 288 	 -251 	2.065 	 -58.205 	 1.89 	
-977 	 291 	 -245 	1.365 	 -58.625 	 6.09 	
-971 	 281 	 -240 	0.665 	 -59.045 	 10.15 	
-970 	 263 	 -231 	-0.105 	 -58.94 	 13.51 	
-975 	 244 	 -220 	-0.77 	 -58.695 	 15.715 	
-970 	 232 	 -213 	-1.26 	 -58.52 	 16.275 	
-963 	 217 	 -209 	-2.03 	 -58.065 	 14.805 	
-956 	 202 	 -207 	-2.765 	 -57.575 	 11.34 	
-946 	 194 	 -211 	-3.15 	 -57.085 	 6.09 	
-932 	 200 	 -214 	-3.57 	 -56.525 	 -0.28 	
-923 	 205 	 -212 	-4.06 	 -55.545 	 -6.86 	
-935 	 209 	 -200 	-4.585 	 -54.32 	 -12.53 	
-945 	 223 	 -185 	-5.075 	 -53.305 	 -16.695 	
-950 	 243 	 -175 	-5.46 	 -52.71 	 -18.655 	
-954 	 253 	 -170 	-6.125 	 -52.01 	 -18.41 	
-956 	 244 	 -174 	-6.475 	 -51.45 	 -16.1 	
-956 	 247 	 -175 	-6.615 	 -50.715 	 -12.32 	
-956 	 260 	 -162 	-6.51 	 -49.91 	 -7.315 	
-968 	 271 	 -143 	-6.72 	 -49.21 	 -1.855 	
-972 	 255 	 -130 	-7.105 	 -48.79 	 3.71 	
-965 	 229 	 -125 	-7.35 	 -48.3 	 8.33 	
-960 	 219 	 -125 	-7.35 	 -47.6 	 11.62 	
-964 	 210 	 -126 	-7.21 	 -46.76 	 13.405 	
-965 	 202 	 -121 	-7.035 	 -46.025 	 13.51 	
-962 	 199 	 -111 	-6.685 	 -45.255 	 12.25 	
-963 	 202 	 -99 	-6.51 	 -44.275 	 10.185 	
-976 	 196 	 -86 	-6.51 	 -43.26 	 7.56 	
-980 	 190 	 -86 	-6.405 	 -42.595 	 4.62 	
-972 	 192 	 -99 	-6.055 	 -42.105 	 1.54 	
-961 	 203 	 -113 	-5.635 	 -41.37 	 -1.365 	
-971 	 209 	 -111 	-5.215 	 -40.32 	 -3.64 	
-982 	 220 	 -103 	-4.76 	 -39.62 	 -5.285 	
-986 	 237 	 -96 	-4.48 	 -39.165 	 -6.055 	
-979 	 244 	 -95 	-4.34 	 -38.955 	 -5.845 	
-974 	 242 	 -93 	-4.025 	 -38.43 	 -4.76 	
-988 	 246 	 -87 	-3.64 	 -37.765 	 -3.01 	
-1001 	 255 	 -77 	-3.15 	 -37.45 	 -0.84 	
-1005 	 252 	 -70 	-2.975 	 -37.45 	 1.61 	
-1001 	 244 	 -68 	-2.66 	 -37.485 	 3.675 	
-1003 	 232 	 -75 	-2.275 	 -37.45 	 5.04 	
-1006 	 225 	 -74 	-1.68 	 -37.415 	 5.53 	
-1003 	 223 	 -65 	-1.26 	 -37.31 	 5.11 	
-999 	 214 	 -55 	-0.98 	 -37.205 	 3.99 	
-1005 	 207 	 -47 	-0.63 	 -37.03 	 2.205 	
-1010 	 202 	 -48 	-0.28 	 -37.03 	 -0.07 	
-1004 	 206 	 -54 	0.105 	 -37.345 	 -2.625 	
-993 	 208 	 -59 	0.35 	 -37.31 	 -5.285 	
-991 	 213 	 -60 	0.77 	 -37.205 	 -7.84 	
-988 	 222 	 -55 	0.945 	 -36.96 	 -9.905 	
-990 	 235 	 -48 	1.085 	 -36.82 	 -11.305 	
-986 	 244 	 -42 	0.945 	 -36.785 	 -11.725 	
-982 	 254 	 -42 	0.84 	 -36.785 	 -11.095 	
-984 	 262 	 -36 	0.875 	 -36.54 	 -9.555 	
-991 	 273 	 -28 	0.63 	 -36.33 	 -7.28 	
-997 	 277 	 -22 	0.245 	 -36.26 	 -4.655 	
-991 	 275 	 -18 	-0.315 	 -36.19 	 -2.1 	
-988 	 268 	 -22 	-0.77 	 -36.05 	 -0.14 	
-993 	 265 	 -21 	-1.12 	 -35.665 	 1.05 	
-999 	 264 	 -16 	-1.575 	 -35.56 	 1.295 	
-993 	 259 	 -11 	-2.135 	 -35.28 	 0.63 	
-990 	 255 	 -9 	-2.695 	 -35.07 	 -0.875 	
-986 	 250 	 -9 	-3.325 	 -34.65 	 -2.905 	
-991 	 248 	 -4 	-3.815 	 -34.405 	 -5.11 	
-993 	 252 	 0 	-4.305 	 -34.195 	 -7.21 	
-991 	 260 	 7 	-4.76 	 -34.09 	 -8.89 	
-995 	 268 	 10 	-5.285 	 -33.775 	 -9.73 	
-1006 	 269 	 16 	-5.775 	 -33.705 	 -9.765 	
-1009 	 264 	 16 	-6.265 	 -33.775 	 -9.065 	
-1002 	 264 	 15 	-6.755 	 -33.95 	 -8.015 	
-998 	 266 	 13 	-7.105 	 -33.95 	 -6.79 	
-1000 	 267 	 18 	-7.42 	 -33.88 	 -5.705 	
-1006 	 268 	 25 	-7.91 	 -33.775 	 -5.005 	
-1002 	 261 	 26 	-8.365 	 -33.95 	 -4.83 	
-992 	 255 	 26 	-8.82 	 -33.88 	 -5.215 	
-992 	 253 	 25 	-9.17 	 -33.775 	 -6.055 	
-995 	 249 	 25 	-9.555 	 -33.635 	 -7.175 	
-996 	 247 	 25 	-9.87 	 -33.6 	 -8.295 	
-995 	 247 	 24 	-10.22 	 -33.39 	 -9.24 	
-1000 	 247 	 29 	-10.43 	 -33.39 	 -9.87 	
-1007 	 244 	 34 	-10.64 	 -33.355 	 -10.185 	
-1003 	 238 	 40 	-10.955 	 -33.32 	 -10.22 	
-1001 	 236 	 40 	-11.095 	 -33.39 	 -10.22 	
-1001 	 230 	 41 	-11.305 	 -33.39 	 -10.15 	
-998 	 224 	 44 	-11.165 	 -33.6 	 -10.115 	
-998 	 222 	 50 	-11.025 	 -33.74 	 -10.045 	
-997 	 223 	 56 	-11.06 	 -33.775 	 -9.94 	
-1003 	 219 	 60 	-10.99 	 -33.985 	 -9.66 	
-999 	 209 	 60 	-10.85 	 -34.195 	 -9.275 	
-989 	 212 	 59 	-10.605 	 -34.44 	 -8.89 	
-984 	 217 	 65 	-10.325 	 -34.37 	 -8.505 	
-991 	 220 	 68 	-10.08 	 -34.475 	 -7.91 	
-990 	 213 	 69 	-9.87 	 -34.72 	 -7.245 	
-983 	 212 	 66 	-9.66 	 -34.895 	 -6.615 	
-978 	 213 	 63 	-9.17 	 -35 	 -6.125 	
-977 	 215 	 68 	-8.75 	 -34.93 	 -5.74 	
-985 	 217 	 75 	-8.365 	 -35.035 	 -5.53 	
-980 	 212 	 80 	-8.085 	 -35.245 	 -5.495 	
-975 	 205 	 78 	-7.805 	 -35.385 	 -5.635 	
-974 	 202 	 78 	-7.42 	 -35.455 	 -5.915 	
-973 	 204 	 78 	-6.965 	 -35.455 	 -6.16 	
-978 	 211 	 87 	-6.405 	 -35.525 	 -6.3 	
-983 	 207 	 93 	-6.02 	 -35.77 	 -6.195 	
-986 	 202 	 95 	-5.81 	 -36.085 	 -5.845 	
-983 	 198 	 100 	-5.25 	 -36.47 	 -5.39 	
-986 	 196 	 103 	-4.655 	 -36.75 	 -4.76 	
-989 	 193 	 108 	-4.06 	 -37.1 	 -3.99 	
-985 	 186 	 112 	-3.5 	 -37.625 	 -3.185 	
-981 	 188 	 117 	-2.8 	 -37.975 	 -2.24 	
-979 	 190 	 123 	-2.205 	 -38.325 	 -1.12 	
-984 	 186 	 126 	-1.645 	 -38.675 	 0.14 	
-984 	 182 	 127 	-0.98 	 -39.06 	 1.435 	
-978 	 182 	 125 	-0.315 	 -39.55 	 2.625 	
-976 	 185 	 125 	0.315 	 -39.76 	 3.605 	
-968 	 185 	 128 	1.015 	 -39.865 	 4.165 	
-970 	 184 	 135 	1.61 	 -40.005 	 4.375 	
-968 	 193 	 138 	2.135 	 -40.18 	 4.13 	
-964 	 194 	 139 	2.59 	 -40.355 	 3.605 	
-964 	 194 	 134 	2.94 	 -40.25 	 2.765 	
-963 	 197 	 130 	3.36 	 -40.285 	 1.715 	
-961 	 204 	 129 	3.745 	 -40.18 	 0.63 	
-963 	 206 	 134 	3.955 	 -40.04 	 -0.49 	
-964 	 210 	 139 	4.06 	 -39.725 	 -1.505 	
-959 	 215 	 145 	4.025 	 -39.515 	 -2.59 	
-953 	 223 	 148 	4.06 	 -39.34 	 -3.605 	
-948 	 229 	 142 	3.955 	 -39.13 	 -4.585 	
-948 	 231 	 139 	3.745 	 -38.745 	 -5.32 	
-948 	 235 	 142 	3.5 	 -38.255 	 -5.95 	
-948 	 244 	 150 	3.115 	 -37.695 	 -6.3 	
-950 	 253 	 155 	2.59 	 -37.275 	 -6.545 	
-944 	 252 	 158 	1.995 	 -36.89 	 -6.755 	
-938 	 250 	 154 	1.225 	 -36.295 	 -7.21 	
-932 	 253 	 146 	0.49 	 -35.77 	 -7.7 	
-926 	 253 	 136 	-0.35 	 -35.14 	 -8.365 	
-922 	 254 	 129 	-1.085 	 -34.545 	 -9.03 	
-914 	 257 	 127 	-1.96 	 -33.74 	 -9.52 	
-909 	 259 	 131 	-2.975 	 -32.97 	 -9.66 	
-906 	 259 	 135 	-4.025 	 -32.235 	 -9.415 	
-897 	 258 	 134 	-4.97 	 -31.605 	 -8.68 	
-889 	 257 	 132 	-5.915 	 -31.045 	 -7.385 	
-880 	 253 	 129 	-6.93 	 -30.205 	 -5.74 	
-878 	 242 	 130 	-7.7 	 -29.54 	 -3.71 	
-879 	 240 	 139 	-8.47 	 -28.945 	 -1.575 	
-875 	 238 	 148 	-9.275 	 -28.21 	 0.455 	
-869 	 232 	 154 	-10.01 	 -27.545 	 2.38 	
-866 	 222 	 162 	-10.64 	 -27.055 	 3.885 	
-869 	 217 	 169 	-11.27 	 -26.355 	 5.005 	
-872 	 212 	 176 	-11.83 	 -25.83 	 5.88 	
-880 	 211 	 183 	-12.285 	 -25.34 	 6.405 	
-892 	 209 	 189 	-12.67 	 -24.85 	 6.685 	
-896 	 204 	 193 	-13.09 	 -24.5 	 6.58 	
-892 	 196 	 193 	-13.265 	 -24.185 	 6.09 	
-894 	 192 	 200 	-13.615 	 -23.625 	 5.425 	
-900 	 194 	 210 	-13.685 	 -23.31 	 4.55 	
-903 	 198 	 215 	-13.895 	 -23.1 	 3.605 	
-904 	 203 	 219 	-14.07 	 -23.065 	 2.695 	
-906 	 194 	 215 	-14.245 	 -22.82 	 1.75 	
-910 	 190 	 212 	-14.175 	 -22.54 	 0.805 	
-913 	 196 	 219 	-14.035 	 -22.295 	 -0.35 	
-912 	 198 	 226 	-13.895 	 -22.155 	 -1.54 	
-911 	 197 	 236 	-13.79 	 -22.05 	 -2.73 	
-908 	 192 	 240 	-13.72 	 -22.015 	 -3.955 	
-904 	 190 	 242 	-13.545 	 -21.77 	 -5.04 	
-898 	 188 	 241 	-13.265 	 -21.7 	 -5.95 	
-888 	 186 	 241 	-13.125 	 -21.49 	 -6.615 	
-877 	 184 	 243 	-12.81 	 -21.105 	 -6.86 	
-876 	 186 	 244 	-12.6 	 -20.615 	 -6.58 	
-876 	 183 	 240 	-12.355 	 -20.3 	 -5.845 	
-868 	 179 	 237 	-12.04 	 -19.915 	 -4.76 	
-861 	 179 	 232 	-11.83 	 -19.39 	 -3.605 	
-856 	 177 	 225 	-11.62 	 -18.655 	 -2.695 	
-852 	 174 	 222 	-11.375 	 -17.885 	 -2.17 	
-845 	 174 	 225 	-11.2 	 -17.115 	 -2.1 	
-841 	 171 	 227 	-11.13 	 -16.17 	 -2.45 	
-840 	 171 	 226 	-11.095 	 -15.05 	 -3.08 	
-848 	 172 	 225 	-11.025 	 -14.035 	 -3.78 	
-851 	 175 	 220 	-10.92 	 -13.09 	 -4.375 	
-849 	 175 	 217 	-10.92 	 -11.935 	 -4.83 	
-855 	 186 	 222 	-10.85 	 -10.78 	 -5.11 	
-866 	 193 	 229 	-10.815 	 -9.73 	 -5.075 	
-868 	 192 	 231 	-10.92 	 -8.715 	 -4.795 	
-866 	 184 	 228 	-10.955 	 -7.735 	 -4.375 	
-864 	 181 	 224 	-10.955 	 -6.65 	 -3.815 	
-858 	 189 	 224 	-10.78 	 -5.6 	 -3.15 	
-860 	 189 	 229 	-10.885 	 -4.48 	 -2.1 	
-861 	 186 	 227 	-10.71 	 -3.64 	 -0.735 	
-865 	 182 	 228 	-10.64 	 -2.695 	 0.98 	
-874 	 182 	 228 	-10.535 	 -1.75 	 3.01 	
-879 	 183 	 233 	-10.29 	 -0.875 	 5.18 	
-889 	 179 	 242 	-9.905 	 -0.07 	 7.175 	
-898 	 179 	 252 	-9.765 	 0.735 	 8.96 	
-910 	 177 	 259 	-9.52 	 1.645 	 10.185 	
-915 	 174 	 263 	-9.24 	 2.275 	 10.99 	
-928 	 174 	 278 	-8.89 	 2.94 	 11.13 	
-936 	 173 	 284 	-8.54 	 3.64 	 10.64 	
-934 	 167 	 282 	-8.19 	 4.235 	 9.73 	
-939 	 168 	 288 	-7.945 	 4.97 	 8.05 	
-939 	 159 	 294 	-7.525 	 5.67 	 6.51 	
-933 	 167 	 295 	-7.07 	 6.23 	 4.585 	
-919 	 170 	 291 	-6.79 	 7 	 3.08 	
-925 	 177 	 289 	-6.51 	 7.945 	 1.785 	
-913 	 171 	 278 	-6.335 	 8.785 	 1.085 	
-914 	 187 	 270 	-6.195 	 9.695 	 0.63 	
-907 	 186 	 261 	-6.055 	 10.5 	 0.945 	
-908 	 196 	 255 	-5.88 	 11.41 	 1.54 	
-911 	 199 	 248 	-5.67 	 12.355 	 2.905 	
-926 	 202 	 257 	-5.635 	 13.335 	 4.06 	
-922 	 201 	 264 	-5.705 	 13.965 	 5.355 	
-926 	 196 	 263 	-5.705 	 14.595 	 6.195 	
-927 	 190 	 262 	-5.74 	 15.26 	 6.72 	
-937 	 188 	 265 	-5.67 	 15.995 	 6.825 	
-943 	 187 	 271 	-5.67 	 16.66 	 6.65 	
-954 	 198 	 285 	-5.74 	 17.22 	 6.335 	
-970 	 205 	 294 	-5.845 	 17.605 	 5.95 	
-984 	 210 	 297 	-5.985 	 17.78 	 5.46 	
-993 	 209 	 297 	-6.09 	 17.92 	 5.075 	
-1003 	 212 	 301 	-6.195 	 18.06 	 4.34 	
-1008 	 208 	 305 	-6.335 	 18.095 	 3.29 	
-1002 	 207 	 305 	-6.545 	 17.955 	 1.785 	
-994 	 203 	 299 	-6.79 	 17.955 	 0 	
-997 	 197 	 293 	-7 	 18.06 	 -2.03 	
-999 	 193 	 291 	-7.14 	 17.955 	 -3.955 	
-997 	 197 	 289 	-7.245 	 17.815 	 -5.67 	
-994 	 200 	 286 	-7.455 	 17.71 	 -6.895 	
-990 	 202 	 286 	-7.735 	 17.745 	 -7.77 	
-987 	 198 	 280 	-8.05 	 17.675 	 -8.155 	
-986 	 196 	 274 	-8.225 	 17.29 	 -8.12 	
-980 	 195 	 271 	-8.435 	 17.115 	 -7.735 	
-977 	 201 	 268 	-8.645 	 16.905 	 -7 	
-985 	 200 	 270 	-9.03 	 16.765 	 -5.845 	
-988 	 195 	 270 	-9.345 	 16.38 	 -4.62 	
-981 	 193 	 267 	-9.625 	 15.96 	 -3.29 	
-976 	 194 	 267 	-10.08 	 15.68 	 -2.065 	
-977 	 190 	 266 	-10.36 	 15.33 	 -0.98 	
-984 	 186 	 263 	-10.745 	 14.875 	 -0.035 	
-986 	 183 	 252 	-10.955 	 14.315 	 0.735 	
-991 	 187 	 246 	-11.305 	 13.685 	 1.26 	
-996 	 187 	 244 	-11.62 	 13.195 	 1.575 	
-1002 	 181 	 242 	-11.83 	 12.74 	 1.68 	
-1013 	 172 	 251 	-12.005 	 12.075 	 1.33 	
-1019 	 168 	 260 	-12.215 	 11.34 	 0.77 	
-1014 	 158 	 266 	-12.495 	 10.43 	 0 	
-1013 	 152 	 268 	-12.53 	 9.66 	 -0.91 	
-1018 	 145 	 270 	-12.425 	 8.855 	 -1.645 	
-1026 	 146 	 271 	-12.18 	 7.945 	 -2.205 	
-1024 	 143 	 277 	-12.005 	 6.965 	 -2.45 	
-1013 	 141 	 277 	-11.9 	 6.265 	 -2.625 	
-1007 	 137 	 275 	-11.62 	 5.32 	 -2.66 	
-998 	 133 	 269 	-11.34 	 4.585 	 -2.625 	
-980 	 132 	 261 	-10.99 	 3.885 	 -2.45 	
-967 	 132 	 255 	-10.745 	 3.465 	 -2.065 	
-971 	 129 	 255 	-10.43 	 3.15 	 -1.4 	
-966 	 123 	 249 	-10.01 	 2.59 	 -0.595 	
-950 	 113 	 235 	-9.73 	 2.31 	 0.35 	
-942 	 112 	 226 	-9.345 	 2.485 	 1.295 	
-947 	 107 	 224 	-8.925 	 2.8 	 2.17 	
-945 	 98 	 218 	-8.505 	 2.975 	 2.73 	
-916 	 87 	 205 	-8.015 	 3.325 	 2.905 	
-899 	 81 	 205 	-7.525 	 4.375 	 2.8 	
-899 	 90 	 212 	-7.07 	 5.705 	 2.31 	
-882 	 90 	 215 	-6.755 	 6.65 	 1.75 	
-856 	 89 	 207 	-6.37 	 7.875 	 1.155 	
-845 	 88 	 197 	-6.055 	 9.695 	 0.63 	
-846 	 88 	 193 	-5.635 	 11.865 	 0.42 	
-847 	 82 	 191 	-5.25 	 13.895 	 0.77 	
-838 	 87 	 188 	-4.935 	 15.82 	 1.505 	
-827 	 94 	 184 	-4.585 	 17.955 	 2.835 	
-831 	 98 	 181 	-4.305 	 20.3 	 4.83 	
-845 	 100 	 179 	-4.025 	 22.61 	 7.455 	
-853 	 100 	 176 	-3.71 	 24.78 	 10.745 	
-859 	 112 	 179 	-3.36 	 26.985 	 14.49 	
-876 	 124 	 182 	-3.045 	 29.225 	 18.515 	
-896 	 132 	 182 	-2.94 	 31.29 	 22.505 	
-906 	 130 	 178 	-2.73 	 33.145 	 26.11 	
-908 	 122 	 173 	-2.52 	 34.965 	 28.735 	
-912 	 115 	 170 	-2.275 	 37.03 	 30.345 	
-928 	 112 	 177 	-2.03 	 39.06 	 30.66 	
-933 	 106 	 172 	-1.68 	 40.74 	 29.785 	
-925 	 100 	 169 	-1.365 	 42.385 	 28 	
-931 	 101 	 165 	-1.05 	 44.205 	 25.76 	
-944 	 100 	 164 	-0.56 	 46.095 	 23.52 	
-951 	 105 	 161 	-0.175 	 47.6 	 21.49 	
-951 	 109 	 153 	0.35 	 48.965 	 19.95 	
-951 	 112 	 140 	0.7 	 50.435 	 19.04 	
-953 	 114 	 127 	1.19 	 51.8 	 18.76 	
-957 	 120 	 116 	1.785 	 52.955 	 19.11 	
-964 	 126 	 107 	2.345 	 54.11 	 19.845 	
-973 	 129 	 101 	2.87 	 55.195 	 20.825 	
-975 	 132 	 102 	3.36 	 56.175 	 21.84 	
-980 	 134 	 102 	3.92 	 57.015 	 22.75 	
-985 	 137 	 97 	4.445 	 57.715 	 23.485 	
-991 	 137 	 88 	4.9 	 58.415 	 23.905 	
-997 	 136 	 78 	5.46 	 59.045 	 24.01 	
-1008 	 135 	 71 	6.09 	 59.605 	 23.765 	
-1007 	 132 	 72 	6.685 	 60.06 	 23.03 	
-1004 	 131 	 72 	7.21 	 60.445 	 21.77 	
-1006 	 131 	 72 	7.735 	 61.005 	 20.055 	
-1005 	 131 	 67 	8.26 	 61.11 	 17.92 	
-1000 	 132 	 56 	8.75 	 61.39 	 15.54 	
-995 	 137 	 48 	9.24 	 61.705 	 13.02 	
-987 	 147 	 35 	9.625 	 62.02 	 10.43 	
-986 	 162 	 27 	9.835 	 62.265 	 8.085 	
-987 	 171 	 17 	10.045 	 62.335 	 6.195 	
-989 	 177 	 12 	10.36 	 62.475 	 4.795 	
-992 	 190 	 7 	10.395 	 62.685 	 3.955 	
-995 	 199 	 3 	10.465 	 62.65 	 3.535 	
-995 	 200 	 0 	10.5 	 62.545 	 3.535 	
-995 	 202 	 -2 	10.36 	 62.405 	 3.605 	
-993 	 208 	 -2 	10.325 	 62.265 	 3.57 	
-988 	 207 	 -4 	10.29 	 62.02 	 3.5 	
-990 	 205 	 -7 	10.15 	 61.845 	 3.255 	
-995 	 208 	 -9 	10.01 	 61.705 	 2.87 	
-997 	 211 	 -14 	9.835 	 61.39 	 2.24 	
-991 	 217 	 -20 	9.485 	 61.145 	 1.365 	
-988 	 218 	 -25 	9.17 	 60.83 	 0.28 	
-981 	 219 	 -39 	8.855 	 60.48 	 -0.98 	
-966 	 218 	 -55 	8.47 	 60.2 	 -2.24 	
-963 	 218 	 -67 	8.05 	 60.06 	 -3.15 	
-961 	 223 	 -72 	7.525 	 59.955 	 -3.605 	
-962 	 235 	 -72 	7.175 	 59.57 	 -3.395 	
-964 	 247 	 -76 	6.755 	 59.22 	 -2.45 	
-971 	 250 	 -78 	6.3 	 58.975 	 -0.875 	
-984 	 250 	 -81 	5.775 	 58.52 	 1.015 	
-988 	 253 	 -77 	5.425 	 57.855 	 2.835 	
-987 	 254 	 -71 	5.145 	 57.295 	 4.235 	
-988 	 246 	 -64 	4.62 	 56.805 	 4.97 	
-990 	 232 	 -65 	4.305 	 56.105 	 4.865 	
-986 	 225 	 -67 	4.06 	 55.475 	 3.885 	
-984 	 224 	 -72 	3.78 	 54.915 	 2.275 	
-983 	 222 	 -77 	3.57 	 54.25 	 0.28 	
-980 	 218 	 -83 	3.43 	 53.55 	 -1.855 	
-981 	 226 	 -86 	3.29 	 52.955 	 -3.675 	
-982 	 233 	 -89 	3.08 	 52.29 	 -4.76 	
-986 	 236 	 -92 	2.87 	 51.52 	 -5.04 	
-982 	 239 	 -100 	2.625 	 50.785 	 -4.62 	
-974 	 245 	 -116 	2.52 	 49.875 	 -3.465 	
-969 	 251 	 -123 	2.415 	 49.245 	 -1.75 	
-973 	 256 	 -121 	2.275 	 48.58 	 0.21 	
-971 	 257 	 -121 	2.065 	 47.81 	 2.38 	
-969 	 261 	 -125 	1.89 	 46.935 	 4.41 	
-969 	 257 	 -130 	1.75 	 46.095 	 6.16 	
-972 	 253 	 -135 	1.715 	 45.36 	 7.35 	
-977 	 247 	 -137 	1.61 	 44.73 	 7.875 	
-980 	 242 	 -137 	1.54 	 44.1 	 7.805 	
-981 	 237 	 -137 	1.47 	 43.19 	 7.14 	
-983 	 233 	 -141 	1.435 	 42.385 	 6.09 	
-987 	 234 	 -140 	1.435 	 41.755 	 4.795 	
-991 	 244 	 -141 	1.54 	 40.915 	 3.43 	
-992 	 249 	 -141 	1.4 	 40.075 	 2.38 	
-995 	 251 	 -142 	1.4 	 39.27 	 1.61 	
-999 	 257 	 -145 	1.47 	 38.36 	 1.26 	
-1004 	 264 	 -147 	1.4 	 37.52 	 1.4 	
-998 	 265 	 -147 	1.225 	 36.54 	 1.89 	
-992 	 262 	 -152 	1.12 	 35.63 	 2.415 	
-982 	 259 	 -158 	1.015 	 34.93 	 2.975 	
-982 	 254 	 -165 	0.875 	 34.265 	 3.43 	
-977 	 248 	 -170 	0.665 	 33.635 	 3.78 	
-972 	 244 	 -177 	0.595 	 32.83 	 3.85 	
-970 	 248 	 -184 	0.525 	 32.2 	 3.745 	
-976 	 252 	 -192 	0.385 	 31.605 	 3.43 	
-981 	 254 	 -195 	0.14 	 31.045 	 3.08 	
-992 	 254 	 -197 	-0.035 	 30.415 	 2.73 	
-998 	 259 	 -196 	-0.245 	 29.785 	 2.415 	
-1005 	 265 	 -191 	-0.35 	 28.98 	 2.17 	
-1010 	 265 	 -183 	-0.735 	 28.28 	 1.855 	
-1011 	 267 	 -177 	-0.945 	 27.475 	 1.54 	
-1009 	 266 	 -180 	-1.225 	 26.565 	 1.155 	
-1006 	 264 	 -180 	-1.505 	 25.725 	 0.735 	
-1002 	 259 	 -185 	-1.715 	 24.85 	 0.21 	
-1000 	 256 	 -187 	-1.855 	 24.08 	 -0.21 	
-999 	 260 	 -187 	-1.855 	 23.31 	 -0.56 	
-997 	 260 	 -186 	-1.995 	 22.575 	 -0.665 	
-995 	 253 	 -191 	-2.205 	 21.7 	 -0.595 	
-993 	 250 	 -197 	-2.31 	 21 	 -0.455 	
-991 	 251 	 -201 	-2.24 	 20.265 	 -0.35 	
-988 	 251 	 -206 	-2.38 	 19.6 	 -0.35 	
-986 	 250 	 -210 	-2.52 	 19.04 	 -0.56 	
-983 	 254 	 -213 	-2.59 	 18.375 	 -1.015 	
-976 	 261 	 -215 	-2.765 	 17.745 	 -1.68 	
-966 	 258 	 -216 	-3.01 	 17.36 	 -2.415 	
-968 	 256 	 -215 	-3.29 	 17.185 	 -3.01 	
-971 	 256 	 -217 	-3.43 	 16.765 	 -3.5 	
-962 	 256 	 -219 	-3.5 	 16.24 	 -3.78 	
-951 	 252 	 -225 	-3.78 	 15.89 	 -3.85 	
-946 	 246 	 -226 	-4.06 	 15.855 	 -3.955 	
-944 	 245 	 -222 	-4.165 	 15.75 	 -4.025 	
-941 	 249 	 -217 	-4.27 	 15.575 	 -3.955 	
-932 	 249 	 -218 	-4.305 	 15.295 	 -3.955 	
-934 	 241 	 -219 	-4.62 	 15.54 	 -3.78 	
-942 	 239 	 -218 	-4.69 	 15.61 	 -3.605 	
-939 	 239 	 -218 	-4.76 	 15.575 	 -3.64 	
-935 	 238 	 -219 	-4.865 	 15.575 	 -3.78 	
-933 	 239 	 -219 	-4.935 	 15.75 	 -4.2 	
-933 	 244 	 -219 	-5.04 	 16.03 	 -4.76 	
-927 	 248 	 -226 	-5.18 	 16.065 	 -5.39 	
-919 	 253 	 -231 	-5.32 	 16.345 	 -5.67 	
-921 	 259 	 -236 	-5.355 	 16.765 	 -5.53 	
-928 	 263 	 -240 	-5.565 	 17.22 	 -4.725 	
-925 	 263 	 -248 	-5.705 	 17.5 	 -3.36 	
-924 	 258 	 -256 	-5.775 	 17.78 	 -1.645 	
-918 	 249 	 -263 	-5.81 	 18.235 	 0.14 	
-920 	 244 	 -271 	-5.775 	 18.83 	 1.785 	
-921 	 238 	 -274 	-5.705 	 19.355 	 2.87 	
-916 	 226 	 -276 	-5.565 	 19.845 	 3.43 	
-912 	 212 	 -277 	-5.32 	 20.475 	 3.43 	
-911 	 205 	 -277 	-5.075 	 21.28 	 2.87 	
-910 	 203 	 -276 	-4.69 	 21.875 	 1.995 	
-902 	 202 	 -274 	-4.2 	 22.4 	 1.015 	
-907 	 199 	 -270 	-3.71 	 23.17 	 0.21 	
-919 	 196 	 -268 	-3.255 	 23.94 	 -0.245 	
-922 	 199 	 -269 	-2.73 	 24.465 	 -0.455 	
-918 	 206 	 -269 	-2.1 	 24.85 	 -0.28 	
-906 	 212 	 -277 	-1.575 	 25.34 	 0.105 	
-909 	 215 	 -282 	-1.05 	 25.97 	 0.98 	
-915 	 214 	 -286 	-0.35 	 26.46 	 2.24 	
-919 	 221 	 -288 	0.28 	 26.74 	 3.955 	
-921 	 227 	 -294 	0.77 	 27.125 	 5.915 	
-938 	 224 	 -298 	1.47 	 27.475 	 8.085 	
-949 	 223 	 -299 	2.1 	 27.615 	 10.01 	
-948 	 222 	 -301 	2.695 	 27.755 	 11.655 	
-947 	 218 	 -299 	3.36 	 27.755 	 12.74 	
-955 	 211 	 -303 	4.095 	 27.86 	 13.16 	
-959 	 204 	 -305 	4.865 	 27.895 	 12.845 	
-955 	 206 	 -305 	5.705 	 27.825 	 11.935 	
-952 	 205 	 -302 	6.37 	 27.895 	 10.535 	
-953 	 202 	 -301 	7.105 	 28.105 	 8.855 	
-953 	 204 	 -300 	7.875 	 28 	 6.93 	
-944 	 207 	 -307 	8.68 	 27.895 	 4.97 	
-936 	 207 	 -311 	9.485 	 28 	 3.045 	
-935 	 206 	 -313 	10.22 	 28.21 	 1.4 	
-931 	 212 	 -317 	10.92 	 28.245 	 -0.035 	
-924 	 220 	 -318 	11.655 	 28.35 	 -0.945 	
-926 	 228 	 -320 	12.25 	 28.455 	 -1.19 	
-929 	 228 	 -323 	12.845 	 28.525 	 -0.805 	
-927 	 232 	 -328 	13.44 	 28.525 	 0.105 	
-924 	 245 	 -331 	14 	 28.63 	 1.47 	
-931 	 254 	 -332 	14.35 	 28.84 	 3.115 	
-937 	 253 	 -334 	14.735 	 28.84 	 4.795 	
-935 	 254 	 -345 	15.155 	 28.77 	 6.23 	
-926 	 256 	 -358 	15.435 	 28.875 	 7.385 	
-927 	 260 	 -358 	15.575 	 29.19 	 8.085 	
-929 	 256 	 -358 	15.785 	 29.47 	 8.4 	
-925 	 258 	 -359 	15.82 	 29.505 	 8.225 	
-915 	 259 	 -368 	15.89 	 29.645 	 7.63 	
-911 	 256 	 -374 	15.89 	 29.96 	 6.615 	
-911 	 255 	 -381 	15.925 	 30.345 	 5.53 	
-911 	 254 	 -384 	15.995 	 30.66 	 4.34 	
-907 	 258 	 -384 	15.89 	 31.08 	 3.045 	
-897 	 262 	 -386 	15.82 	 31.465 	 1.75 	
-884 	 261 	 -390 	15.645 	 31.71 	 0.49 	
-882 	 268 	 -397 	15.47 	 31.955 	 -0.665 	
-879 	 272 	 -404 	15.155 	 32.445 	 -1.4 	
-880 	 269 	 -408 	15.05 	 32.76 	 -1.435 	
-887 	 271 	 -414 	14.875 	 33.11 	 -0.735 	
-898 	 282 	 -413 	14.665 	 33.285 	 0.805 	
-907 	 292 	 -405 	14.7 	 33.215 	 3.01 	
-911 	 293 	 -403 	14.35 	 33.215 	 5.6 	
-915 	 283 	 -402 	14.175 	 33.005 	 8.295 	
-920 	 277 	 -401 	14.035 	 32.9 	 10.64 	
-923 	 269 	 -400 	13.895 	 32.655 	 12.18 	
-917 	 263 	 -395 	13.72 	 32.41 	 12.67 	
-911 	 256 	 -396 	13.65 	 32.13 	 12.18 	
-904 	 251 	 -399 	13.545 	 31.92 	 10.71 	
-902 	 248 	 -400 	13.37 	 31.85 	 8.715 	
-900 	 243 	 -403 	13.265 	 31.57 	 6.475 	
-894 	 245 	 -406 	13.265 	 31.255 	 4.2 	
-891 	 249 	 -411 	13.055 	 31.15 	 2.345 	
-892 	 251 	 -416 	13.055 	 30.835 	 0.875 	
-888 	 254 	 -418 	12.88 	 30.45 	 -0.035 	
-880 	 257 	 -423 	12.775 	 30.135 	 -0.42 	
-875 	 260 	 -426 	12.53 	 29.855 	 -0.245 	
-878 	 261 	 -424 	12.425 	 29.435 	 0.315 	
-879 	 260 	 -424 	12.18 	 28.98 	 1.365 	
-879 	 262 	 -431 	12.11 	 28.385 	 2.765 	
-881 	 264 	 -435 	11.935 	 27.825 	 4.305 	
-883 	 262 	 -433 	11.865 	 27.265 	 5.95 	
-885 	 256 	 -429 	11.76 	 26.775 	 7.49 	
-884 	 252 	 -430 	11.69 	 26.04 	 8.75 	
-877 	 246 	 -434 	11.585 	 25.445 	 9.66 	
-877 	 242 	 -432 	11.69 	 24.815 	 10.185 	
-873 	 241 	 -429 	11.725 	 24.185 	 10.255 	
-873 	 234 	 -430 	11.62 	 23.555 	 9.975 	
-874 	 228 	 -432 	11.76 	 22.855 	 9.415 	
-872 	 227 	 -437 	11.9 	 22.225 	 8.645 	
-872 	 228 	 -438 	12.18 	 21.49 	 7.63 	
-874 	 228 	 -435 	12.25 	 20.895 	 6.615 	
-876 	 226 	 -436 	12.39 	 20.23 	 5.67 	
-880 	 227 	 -434 	12.425 	 19.495 	 4.69 	
-880 	 233 	 -436 	12.6 	 18.62 	 3.815 	
-878 	 231 	 -441 	12.705 	 17.92 	 3.22 	
-885 	 227 	 -446 	12.775 	 17.15 	 2.765 	
-890 	 228 	 -449 	12.88 	 16.275 	 2.45 	
-890 	 234 	 -450 	12.95 	 15.4 	 2.38 	
-893 	 243 	 -449 	13.125 	 14.42 	 2.415 	
-900 	 246 	 -443 	12.915 	 13.58 	 2.555 	
-905 	 244 	 -443 	12.705 	 12.6 	 2.73 	
-902 	 243 	 -444 	12.67 	 11.55 	 2.8 	
-902 	 250 	 -445 	12.565 	 10.535 	 2.835 	
-910 	 254 	 -448 	12.39 	 9.555 	 2.695 	
-916 	 252 	 -451 	12.145 	 8.575 	 2.555 	
-914 	 247 	 -456 	11.97 	 7.455 	 2.24 	
-909 	 248 	 -459 	11.76 	 6.44 	 1.715 	
-912 	 245 	 -454 	11.55 	 5.635 	 1.05 	
-909 	 241 	 -451 	11.165 	 4.725 	 0.21 	
-899 	 236 	 -455 	10.955 	 3.675 	 -0.77 	
-890 	 240 	 -456 	10.745 	 2.905 	 -1.89 	
-889 	 242 	 -458 	10.43 	 2.205 	 -3.01 	
-893 	 244 	 -459 	10.08 	 1.47 	 -3.92 	
-891 	 249 	 -462 	9.765 	 0.63 	 -4.55 	
-890 	 253 	 -462 	9.38 	 0.035 	 -4.865 	
-895 	 252 	 -460 	8.96 	 -0.595 	 -4.76 	
-899 	 251 	 -460 	8.505 	 -1.295 	 -4.41 	
-891 	 252 	 -460 	8.05 	 -2.03 	 -3.815 	
-889 	 255 	 -460 	7.455 	 -2.555 	 -3.045 	
-897 	 256 	 -456 	6.895 	 -3.255 	 -2.065 	
-904 	 254 	 -457 	6.265 	 -3.85 	 -1.015 	
-909 	 254 	 -460 	5.74 	 -4.585 	 0.175 	
-918 	 256 	 -459 	5.075 	 -5.18 	 1.33 	
-928 	 253 	 -459 	4.375 	 -5.845 	 2.31 	
-933 	 247 	 -456 	3.64 	 -6.58 	 2.765 	
-929 	 245 	 -454 	3.01 	 -7.245 	 2.625 	
-923 	 240 	 -452 	2.17 	 -7.91 	 1.785 	
-923 	 233 	 -451 	1.365 	 -8.575 	 0.42 	
-920 	 229 	 -448 	0.56 	 -9.03 	 -1.365 	
-919 	 230 	 -442 	-0.21 	 -9.52 	 -3.325 	
-920 	 233 	 -440 	-0.98 	 -10.045 	 -5.04 	
-927 	 231 	 -441 	-1.785 	 -10.71 	 -6.335 	
-927 	 234 	 -444 	-2.625 	 -11.34 	 -7.105 	
-930 	 239 	 -448 	-3.43 	 -12.04 	 -7.35 	
-931 	 243 	 -449 	-4.165 	 -12.6 	 -7.105 	
-936 	 243 	 -444 	-4.935 	 -13.265 	 -6.405 	
-935 	 247 	 -438 	-5.74 	 -14 	 -5.46 	
-936 	 246 	 -435 	-6.615 	 -14.77 	 -4.375 	
-940 	 240 	 -432 	-7.595 	 -15.505 	 -3.325 	
-942 	 235 	 -437 	-8.4 	 -16.345 	 -2.52 	
-940 	 230 	 -441 	-9.1 	 -17.08 	 -2.065 	
-934 	 235 	 -437 	-9.765 	 -17.675 	 -2.1 	
-934 	 238 	 -423 	-10.64 	 -18.095 	 -2.45 	
-934 	 228 	 -418 	-11.655 	 -18.725 	 -3.01 	
-924 	 218 	 -421 	-12.495 	 -19.46 	 -3.815 	
-923 	 209 	 -427 	-13.37 	 -19.845 	 -4.76 	
-920 	 209 	 -429 	-14.315 	 -20.055 	 -5.915 	
-923 	 199 	 -428 	-15.365 	 -20.195 	 -7.105 	
-923 	 198 	 -433 	-16.205 	 -20.58 	 -8.575 	
-915 	 216 	 -441 	-17.115 	 -20.86 	 -10.01 	
-916 	 226 	 -448 	-18.375 	 -21.035 	 -11.27 	
-924 	 226 	 -441 	-19.775 	 -20.93 	 -12.215 	
-934 	 229 	 -433 	-21.07 	 -21 	 -12.81 	
-943 	 250 	 -431 	-22.47 	 -21.175 	 -13.16 	
-950 	 263 	 -426 	-24.185 	 -21.42 	 -13.195 	
-953 	 252 	 -424 	-26.11 	 -21.35 	 -13.3 	
-962 	 246 	 -416 	-27.825 	 -21.245 	 -13.93 	
-961 	 260 	 -410 	-29.61 	 -21.315 	 -15.4 	
-946 	 274 	 -410 	-31.605 	 -21.56 	 -17.64 	
-928 	 278 	 -407 	-34.02 	 -21.315 	 -20.72 	
-915 	 288 	 -405 	-36.19 	 -21 	 -24.605 	
-913 	 285 	 -410 	-38.325 	 -20.545 	 -27.965 	
-918 	 314 	 -416 	-40.495 	 -20.265 	 -31.08 	
-918 	 325 	 -412 	-42.77 	 -20.16 	 -32.13 	
-920 	 339 	 -412 	-44.905 	 -20.125 	 -31.605 	
-925 	 341 	 -417 	-46.9 	 -20.02 	 -29.155 	
-943 	 336 	 -415 	-48.965 	 -19.845 	 -25.41 	
-944 	 320 	 -397 	-50.925 	 -19.845 	 -21 	
-935 	 297 	 -385 	-52.78 	 -19.74 	 -16.975 	
-923 	 278 	 -387 	-54.285 	 -19.6 	 -14.315 	
-914 	 268 	 -390 	-55.72 	 -19.46 	 -13.51 	
-894 	 260 	 -394 	-57.015 	 -19.425 	 -14.735 	
-874 	 246 	 -390 	-58.345 	 -18.9 	 -17.64 	
-885 	 239 	 -384 	-59.78 	 -17.71 	 -21.77 	
-908 	 234 	 -378 	-61.04 	 -16.87 	 -26.705 	
-900 	 236 	 -383 	-61.95 	 -16.625 	 -32.06 	
-875 	 253 	 -393 	-62.93 	 -16.275 	 -37.135 	
-876 	 259 	 -391 	-64.05 	 -15.26 	 -41.125 	
-894 	 258 	 -382 	-64.855 	 -14.525 	 -43.68 	
-897 	 267 	 -381 	-65.345 	 -14.28 	 -44.38 	
-889 	 278 	 -379 	-65.8 	 -14.035 	 -42.98 	
-901 	 268 	 -378 	-66.395 	 -13.51 	 -39.76 	
-917 	 249 	 -373 	-66.535 	 -13.265 	 -35.21 	
-915 	 242 	 -368 	-66.22 	 -13.37 	 -30.31 	
-900 	 225 	 -363 	-65.905 	 -13.37 	 -25.76 	
-898 	 193 	 -354 	-65.52 	 -13.16 	 -22.225 	
-902 	 164 	 -338 	-64.645 	 -12.845 	 -20.265 	
-884 	 153 	 -331 	-63.63 	 -12.67 	 -20.055 	
-880 	 140 	 -332 	-62.65 	 -12.39 	 -21.28 	
-887 	 125 	 -327 	-61.39 	 -12.04 	 -23.52 	
-889 	 124 	 -324 	-59.71 	 -12.005 	 -26.39 	
-901 	 138 	 -320 	-58.345 	 -11.76 	 -29.33 	
-911 	 132 	 -307 	-57.19 	 -11.48 	 -32.13 	
-914 	 128 	 -308 	-56.14 	 -11.165 	 -35.035 	
-926 	 139 	 -320 	-54.635 	 -11.13 	 -37.905 	
-926 	 153 	 -331 	-53.2 	 -11.445 	 -40.845 	
-912 	 171 	 -337 	-52.01 	 -11.83 	 -43.505 	
-910 	 175 	 -343 	-51.03 	 -11.795 	 -45.605 	
-938 	 174 	 -339 	-49.945 	 -11.69 	 -47.18 	
-949 	 182 	 -333 	-48.755 	 -12.075 	 -48.02 	
-930 	 191 	 -330 	-47.775 	 -12.705 	 -48.405 	
-910 	 185 	 -326 	-47.11 	 -12.81 	 -48.195 	
-912 	 172 	 -318 	-46.13 	 -12.95 	 -47.46 	
-904 	 180 	 -323 	-44.765 	 -13.335 	 -46.235 	
-882 	 195 	 -326 	-43.61 	 -13.685 	 -43.995 	
-880 	 201 	 -324 	-42.77 	 -13.65 	 -40.705 	
-895 	 196 	 -320 	-41.72 	 -13.58 	 -36.61 	
-886 	 204 	 -324 	-40.425 	 -13.86 	 -32.13 	
-865 	 213 	 -335 	-39.305 	 -13.93 	 -27.615 	
-866 	 207 	 -337 	-38.5 	 -13.475 	 -23.38 	
-870 	 204 	 -327 	-37.415 	 -13.16 	 -19.88 	
-859 	 209 	 -330 	-36.575 	 -12.81 	 -17.395 	
-862 	 207 	 -339 	-35.875 	 -12.075 	 -15.995 	
-866 	 200 	 -343 	-35.175 	 -11.34 	 -15.855 	
-861 	 195 	 -349 	-34.3 	 -10.78 	 -16.87 	
-861 	 204 	 -352 	-33.6 	 -9.87 	 -18.655 	
-871 	 209 	 -347 	-33.005 	 -9.065 	 -20.86 	
-881 	 210 	 -337 	-32.445 	 -8.295 	 -23.065 	
-885 	 211 	 -332 	-32.025 	 -7.455 	 -25.13 	
-894 	 210 	 -334 	-31.57 	 -6.72 	 -26.915 	
-899 	 204 	 -340 	-31.045 	 -6.195 	 -28.35 	
-893 	 206 	 -337 	-30.485 	 -5.95 	 -29.435 	
-886 	 209 	 -336 	-29.925 	 -5.495 	 -29.925 	
-893 	 204 	 -333 	-29.47 	 -4.935 	 -29.715 	
-908 	 202 	 -325 	-28.84 	 -4.515 	 -28.665 	
-913 	 217 	 -324 	-28.105 	 -4.55 	 -26.705 	
-905 	 229 	 -318 	-27.475 	 -4.62 	 -23.765 	
-912 	 220 	 -315 	-26.95 	 -4.41 	 -20.195 	
-925 	 217 	 -306 	-26.39 	 -4.305 	 -16.38 	
-923 	 216 	 -305 	-25.935 	 -4.235 	 -13.02 	
-915 	 208 	 -314 	-25.585 	 -4.2 	 -10.395 	
-912 	 196 	 -324 	-24.99 	 -4.2 	 -8.96 	
-907 	 195 	 -332 	-24.325 	 -4.13 	 -8.575 	
-902 	 198 	 -328 	-23.905 	 -3.78 	 -9.03 	
-908 	 188 	 -318 	-23.695 	 -3.15 	 -10.15 	
-920 	 178 	 -313 	-23.415 	 -2.765 	 -11.69 	
-925 	 182 	 -318 	-22.96 	 -2.59 	 -13.72 	
-916 	 191 	 -319 	-22.75 	 -2.345 	 -16.1 	
-913 	 189 	 -317 	-22.645 	 -1.75 	 -18.585 	
-923 	 179 	 -312 	-22.54 	 -1.155 	 -21.105 	
-925 	 182 	 -315 	-22.155 	 -1.05 	 -23.45 	
-910 	 193 	 -323 	-21.77 	 -0.98 	 -25.305 	
-909 	 195 	 -319 	-21.665 	 -0.525 	 -26.075 	
-921 	 192 	 -311 	-21.315 	 -0.175 	 -25.655 	
-929 	 193 	 -308 	-20.825 	 -0.175 	 -24.045 	
-929 	 202 	 -306 	-20.44 	 -0.315 	 -21.455 	
-927 	 195 	 -305 	-20.125 	 -0.49 	 -18.165 	
-929 	 184 	 -297 	-19.81 	 -0.42 	 -14.735 	
-919 	 181 	 -291 	-19.32 	 -0.42 	 -11.69 	
-919 	 172 	 -296 	-19.075 	 -0.385 	 -9.24 	
-922 	 160 	 -302 	-18.515 	 -0.56 	 -7.63 	
-914 	 161 	 -306 	-17.99 	 -0.805 	 -6.72 	
-900 	 168 	 -303 	-17.57 	 -0.735 	 -6.265 	
-912 	 167 	 -298 	-17.185 	 -0.42 	 -6.16 	
-923 	 158 	 -296 	-16.87 	 -0.175 	 -6.335 	
-922 	 166 	 -296 	-16.555 	 -0.175 	 -6.86 	
-918 	 177 	 -291 	-16.205 	 -0.105 	 -7.945 	
-910 	 170 	 -292 	-16.135 	 0.105 	 -9.415 	
-910 	 163 	 -299 	-15.925 	 0.455 	 -11.41 	
-908 	 166 	 -307 	-15.575 	 0.735 	 -13.65 	
-905 	 175 	 -309 	-15.26 	 1.015 	 -15.75 	
-908 	 183 	 -304 	-15.155 	 1.365 	 -17.115 	
-925 	 181 	 -297 	-14.91 	 1.68 	 -17.605 	
-929 	 185 	 -293 	-14.735 	 1.82 	 -17.43 	
-926 	 186 	 -291 	-14.455 	 1.89 	 -16.66 	
-929 	 181 	 -289 	-14.245 	 2.1 	 -15.435 	
-941 	 171 	 -288 	-13.93 	 2.17 	 -14.14 	
-940 	 173 	 -287 	-13.615 	 2.065 	 -12.985 	
-932 	 175 	 -285 	-13.405 	 2.1 	 -12.075 	
-937 	 163 	 -284 	-13.195 	 2.17 	 -11.375 	
-947 	 155 	 -282 	-12.845 	 2.135 	 -10.99 	
-945 	 160 	 -287 	-12.39 	 1.96 	 -10.78 	
-938 	 164 	 -285 	-12.355 	 2.1 	 -10.605 	
-945 	 151 	 -284 	-12.25 	 2.345 	 -10.465 	
-958 	 139 	 -287 	-12.04 	 2.485 	 -10.5 	
-953 	 145 	 -294 	-11.655 	 2.205 	 -10.815 	
-939 	 148 	 -300 	-11.41 	 2.17 	 -11.2 	
-947 	 141 	 -293 	-11.305 	 2.485 	 -11.655 	
-959 	 134 	 -282 	-11.13 	 2.59 	 -12.32 	
-950 	 132 	 -278 	-11.06 	 2.555 	 -13.265 	
-944 	 132 	 -281 	-10.99 	 2.765 	 -14.315 	
-948 	 124 	 -284 	-10.92 	 2.835 	 -15.54 	
-944 	 122 	 -290 	-10.71 	 2.8 	 -16.87 	
-938 	 136 	 -292 	-10.5 	 2.905 	 -18.025 	
-948 	 136 	 -288 	-10.745 	 3.22 	 -18.795 	
-956 	 138 	 -287 	-10.675 	 3.15 	 -19.215 	
-941 	 151 	 -286 	-10.57 	 2.94 	 -19.285 	
-929 	 151 	 -290 	-10.885 	 2.94 	 -18.69 	
-947 	 135 	 -298 	-11.095 	 3.045 	 -17.43 	
-954 	 133 	 -304 	-11.025 	 2.8 	 -15.75 	
-945 	 151 	 -302 	-10.955 	 2.52 	 -13.72 	
-950 	 158 	 -295 	-11.2 	 2.555 	 -11.62 	
-964 	 136 	 -292 	-11.55 	 2.59 	 -9.66 	
-956 	 126 	 -300 	-11.585 	 2.135 	 -8.33 	
-943 	 132 	 -313 	-11.585 	 1.715 	 -7.595 	
-944 	 124 	 -309 	-11.725 	 1.82 	 -7.245 	
-958 	 113 	 -296 	-11.725 	 1.82 	 -7.42 	
-956 	 112 	 -290 	-11.655 	 1.575 	 -7.805 	
-955 	 112 	 -291 	-11.585 	 1.225 	 -8.225 	
-956 	 108 	 -286 	-11.515 	 0.945 	 -8.575 	
-956 	 104 	 -278 	-11.375 	 0.77 	 -8.82 	
-955 	 109 	 -274 	-11.305 	 0.595 	 -8.995 	
-962 	 103 	 -274 	-11.235 	 0.455 	 -9.135 	
-965 	 97 	 -281 	-10.99 	 -0.035 	 -9.275 	
-954 	 100 	 -289 	-10.57 	 -0.7 	 -9.555 	
-953 	 108 	 -292 	-10.395 	 -0.945 	 -9.66 	
-963 	 107 	 -282 	-10.36 	 -1.05 	 -9.66 	
-968 	 104 	 -277 	-10.29 	 -1.47 	 -9.415 	
-966 	 104 	 -279 	-10.045 	 -2.1 	 -9.275 	
-966 	 107 	 -282 	-9.835 	 -2.66 	 -9.135 	
-964 	 106 	 -282 	-9.8 	 -3.185 	 -9.275 	
-963 	 98 	 -283 	-9.765 	 -3.64 	 -9.695 	
-963 	 99 	 -282 	-9.555 	 -4.13 	 -10.5 	
-955 	 103 	 -277 	-9.415 	 -4.62 	 -11.76 	
-948 	 97 	 -278 	-9.52 	 -5.005 	 -13.265 	
-948 	 91 	 -280 	-9.45 	 -5.46 	 -14.945 	
-943 	 94 	 -286 	-9.345 	 -6.02 	 -16.38 	
-938 	 101 	 -287 	-9.135 	 -6.58 	 -17.29 	
-940 	 106 	 -283 	-9.065 	 -6.895 	 -17.36 	
-949 	 106 	 -278 	-9.065 	 -7.245 	 -16.555 	
-953 	 105 	 -281 	-8.925 	 -7.91 	 -15.015 	
-950 	 111 	 -280 	-8.855 	 -8.505 	 -13.125 	
-947 	 116 	 -275 	-8.89 	 -8.995 	 -11.13 	
-952 	 114 	 -266 	-9.03 	 -9.38 	 -9.38 	
-951 	 110 	 -267 	-9.24 	 -9.835 	 -8.4 	
-943 	 102 	 -279 	-9.415 	 -10.36 	 -8.26 	
-931 	 99 	 -297 	-9.485 	 -10.885 	 -8.89 	
-928 	 104 	 -300 	-9.59 	 -10.955 	 -10.01 	
-935 	 112 	 -300 	-9.765 	 -10.955 	 -10.99 	
-943 	 116 	 -297 	-9.975 	 -11.2 	 -11.55 	
-945 	 114 	 -294 	-10.29 	 -11.41 	 -11.34 	
-942 	 109 	 -296 	-10.395 	 -11.76 	 -10.535 	
-945 	 107 	 -292 	-10.43 	 -11.9 	 -9.24 	
-945 	 103 	 -281 	-10.395 	 -12.11 	 -7.665 	
-942 	 91 	 -274 	-10.325 	 -12.355 	 -6.055 	
-943 	 80 	 -270 	-10.185 	 -12.425 	 -4.69 	
-945 	 72 	 -267 	-9.87 	 -12.495 	 -3.78 	
-941 	 71 	 -268 	-9.45 	 -12.67 	 -3.36 	
-940 	 63 	 -269 	-8.96 	 -12.635 	 -3.395 	
-940 	 63 	 -270 	-8.54 	 -12.565 	 -3.92 	
-937 	 67 	 -272 	-7.91 	 -12.495 	 -4.55 	
-935 	 70 	 -273 	-7.315 	 -12.285 	 -5.04 	
-932 	 76 	 -270 	-6.755 	 -11.935 	 -5.39 	
-933 	 82 	 -268 	-6.37 	 -11.62 	 -5.6 	
-929 	 87 	 -271 	-5.845 	 -11.27 	 -5.565 	
-925 	 93 	 -280 	-5.32 	 -10.85 	 -5.285 	
-927 	 99 	 -284 	-4.795 	 -10.43 	 -4.725 	
-927 	 103 	 -286 	-4.375 	 -9.835 	 -3.92 	
-924 	 106 	 -288 	-3.955 	 -9.24 	 -2.975 	
-926 	 108 	 -289 	-3.465 	 -8.505 	 -1.925 	
-929 	 110 	 -289 	-3.01 	 -7.77 	 -0.98 	
-929 	 104 	 -284 	-2.59 	 -7.14 	 -0.07 	
-928 	 99 	 -281 	-2.03 	 -6.475 	 0.77 	
-925 	 98 	 -278 	-1.505 	 -5.705 	 1.4 	
-928 	 94 	 -277 	-0.98 	 -4.83 	 2.1 	
-937 	 91 	 -275 	-0.35 	 -4.025 	 2.87 	
-940 	 88 	 -280 	0.35 	 -3.43 	 3.535 	
-934 	 89 	 -279 	1.05 	 -2.73 	 4.27 	
-937 	 94 	 -274 	1.75 	 -1.995 	 4.9 	
-940 	 99 	 -273 	2.415 	 -1.26 	 5.53 	
-944 	 103 	 -273 	3.01 	 -0.595 	 6.265 	
-944 	 105 	 -278 	3.64 	 -0.07 	 7 	
-945 	 109 	 -283 	4.2 	 0.49 	 7.875 	
-946 	 115 	 -286 	4.865 	 1.05 	 8.96 	
-944 	 123 	 -284 	5.46 	 1.61 	 10.15 	
-947 	 127 	 -277 	5.775 	 2.275 	 11.515 	
-956 	 121 	 -278 	6.265 	 2.73 	 12.985 	
-961 	 116 	 -281 	6.79 	 3.185 	 14.175 	
-958 	 123 	 -282 	7.455 	 3.535 	 15.295 	
-954 	 127 	 -283 	7.875 	 3.92 	 16.24 	
-960 	 125 	 -279 	8.365 	 4.375 	 17.15 	
-963 	 125 	 -269 	8.925 	 4.76 	 18.025 	
-964 	 130 	 -265 	9.31 	 5.145 	 18.9 	
-974 	 123 	 -267 	9.66 	 5.53 	 19.775 	
-973 	 121 	 -274 	10.22 	 5.565 	 20.405 	
-966 	 126 	 -279 	10.815 	 5.635 	 20.965 	
-968 	 134 	 -281 	11.375 	 5.88 	 21.49 	
-974 	 128 	 -273 	11.795 	 6.23 	 21.91 	
-976 	 129 	 -271 	12.145 	 6.335 	 22.085 	
-974 	 130 	 -273 	12.565 	 6.265 	 21.945 	
-974 	 130 	 -282 	12.985 	 6.23 	 21.56 	
-973 	 133 	 -287 	13.37 	 6.09 	 20.86 	
-974 	 139 	 -288 	13.72 	 6.09 	 20.09 	
-980 	 144 	 -287 	14.245 	 6.02 	 19.425 	
-989 	 140 	 -284 	14.665 	 5.635 	 19.005 	
-996 	 138 	 -282 	15.155 	 5.285 	 18.9 	
-1002 	 140 	 -279 	15.855 	 4.69 	 19.11 	
-1008 	 136 	 -277 	16.485 	 3.92 	 19.53 	
-1013 	 125 	 -276 	17.395 	 2.94 	 19.985 	
-1017 	 115 	 -266 	18.375 	 2.065 	 20.37 	
-1017 	 111 	 -255 	19.285 	 1.155 	 20.37 	
-1029 	 102 	 -243 	20.3 	 0.175 	 19.915 	
-1025 	 96 	 -231 	21.385 	 -0.945 	 18.795 	
-1015 	 89 	 -239 	22.26 	 -1.995 	 16.695 	
-1013 	 86 	 -253 	23.1 	 -2.835 	 13.65 	
-1006 	 92 	 -266 	24.01 	 -3.71 	 9.555 	
-988 	 108 	 -283 	24.92 	 -4.585 	 4.865 	
-983 	 121 	 -295 	25.515 	 -5.18 	 0.175 	
-981 	 130 	 -302 	25.935 	 -5.6 	 -4.025 	
-975 	 144 	 -307 	26.285 	 -6.195 	 -7.42 	
-972 	 158 	 -312 	26.46 	 -6.65 	 -9.625 	
-976 	 154 	 -315 	26.565 	 -7.07 	 -10.71 	
-965 	 166 	 -320 	26.775 	 -7.49 	 -10.71 	
-968 	 165 	 -322 	27.09 	 -7.91 	 -9.555 	
-968 	 161 	 -315 	27.37 	 -8.575 	 -7.28 	
-962 	 151 	 -312 	28 	 -9.415 	 -3.85 	
-959 	 141 	 -310 	28.7 	 -10.29 	 0.7 	
-976 	 136 	 -292 	29.68 	 -11.2 	 6.125 	
-969 	 113 	 -249 	30.31 	 -11.865 	 11.9 	
-976 	 81 	 -228 	30.905 	 -12.39 	 17.15 	
-993 	 53 	 -233 	31.85 	 -13.195 	 20.685 	
-973 	 54 	 -260 	33.145 	 -14.7 	 21.525 	
-923 	 57 	 -284 	34.055 	 -15.54 	 19.6 	
-911 	 47 	 -295 	34.79 	 -15.26 	 15.19 	
-932 	 44 	 -301 	35.525 	 -14.945 	 8.82 	
-924 	 63 	 -310 	36.155 	 -15.12 	 1.295 	
-896 	 87 	 -325 	36.295 	 -15.12 	 -6.3 	
-890 	 93 	 -333 	36.19 	 -14.42 	 -12.985 	
-908 	 96 	 -330 	36.26 	 -13.72 	 -18.165 	
-912 	 113 	 -338 	36.225 	 -13.405 	 -21.595 	
-894 	 128 	 -343 	35.98 	 -13.16 	 -22.75 	
-890 	 134 	 -347 	35.91 	 -12.705 	 -21.665 	
-902 	 133 	 -346 	35.875 	 -12.18 	 -18.515 	
-907 	 129 	 -344 	35.98 	 -12.11 	 -13.51 	
-899 	 121 	 -344 	36.225 	 -12.25 	 -6.93 	
-901 	 105 	 -334 	36.61 	 -12.285 	 0.665 	
-917 	 91 	 -314 	37.31 	 -12.355 	 8.75 	
-922 	 72 	 -281 	37.765 	 -12.39 	 16.24 	
-919 	 44 	 -263 	38.01 	 -12.285 	 22.12 	
-929 	 15 	 -271 	38.465 	 -12.145 	 25.375 	
-917 	 7 	 -288 	39.48 	 -12.39 	 25.2 	
-885 	 12 	 -309 	40.215 	 -12.32 	 21.91 	
-877 	 6 	 -316 	40.635 	 -11.515 	 16.205 	
-895 	 8 	 -319 	41.16 	 -10.675 	 9.205 	
-901 	 24 	 -331 	41.58 	 -10.185 	 2.065 	
-901 	 42 	 -340 	41.895 	 -9.59 	 -4.06 	
-918 	 47 	 -335 	42.175 	 -8.61 	 -8.225 	
-931 	 57 	 -328 	42.455 	 -7.91 	 -10.5 	
-926 	 67 	 -322 	42.84 	 -7.7 	 -10.745 	
-917 	 72 	 -314 	43.19 	 -7.42 	 -9.205 	
-920 	 64 	 -308 	43.47 	 -7.035 	 -6.125 	
-924 	 60 	 -305 	44.17 	 -7.105 	 -1.995 	
-925 	 57 	 -304 	45.185 	 -7.315 	 3.08 	
-928 	 47 	 -295 	46.2 	 -7.56 	 8.785 	
-949 	 31 	 -275 	47.32 	 -7.91 	 14.805 	
-972 	 16 	 -240 	48.545 	 -8.4 	 20.615 	
-976 	 5 	 -218 	49.63 	 -9.1 	 25.41 	
-983 	 -16 	 -209 	50.54 	 -9.625 	 28.56 	
-980 	 -34 	 -228 	51.695 	 -9.94 	 29.12 	
-973 	 -27 	 -255 	52.885 	 -10.395 	 26.775 	
-952 	 5 	 -276 	54.04 	 -10.92 	 21.945 	
-940 	 32 	 -284 	54.705 	 -10.92 	 15.82 	
-946 	 44 	 -289 	54.985 	 -10.535 	 9.415 	
-956 	 55 	 -292 	55.055 	 -10.08 	 3.675 	
-957 	 77 	 -292 	55.125 	 -9.835 	 -0.875 	
-951 	 98 	 -293 	54.915 	 -9.345 	 -3.745 	
-949 	 117 	 -293 	54.705 	 -8.89 	 -4.83 	
-948 	 126 	 -299 	54.32 	 -8.435 	 -4.2 	
-949 	 129 	 -305 	53.97 	 -8.26 	 -1.96 	
-948 	 131 	 -311 	53.55 	 -8.015 	 1.855 	
-946 	 130 	 -310 	53.515 	 -8.015 	 6.965 	
-945 	 129 	 -305 	53.41 	 -7.945 	 12.915 	
-946 	 123 	 -299 	53.41 	 -7.875 	 19.6 	
-961 	 114 	 -283 	53.41 	 -7.98 	 26.495 	
-976 	 106 	 -265 	53.48 	 -8.05 	 32.9 	
-971 	 84 	 -244 	53.095 	 -7.735 	 37.66 	
-974 	 61 	 -246 	52.64 	 -7.245 	 39.55 	
-976 	 54 	 -257 	52.535 	 -6.965 	 37.73 	
-936 	 75 	 -277 	52.71 	 -7.105 	 32.13 	
-890 	 96 	 -296 	52.325 	 -6.44 	 24.01 	
-891 	 104 	 -299 	51.415 	 -4.69 	 15.015 	
-917 	 117 	 -293 	50.61 	 -2.975 	 6.65 	
-920 	 152 	 -295 	49.875 	 -1.925 	 0.105 	
-912 	 183 	 -298 	48.685 	 -0.63 	 -3.78 	
-917 	 188 	 -298 	47.355 	 0.84 	 -4.795 	
-929 	 186 	 -299 	46.305 	 2.065 	 -3.36 	
-931 	 198 	 -304 	45.535 	 2.975 	 0.07 	
-926 	 200 	 -298 	44.66 	 3.85 	 4.9 	
-928 	 183 	 -288 	43.75 	 4.725 	 10.465 	
-926 	 162 	 -282 	43.295 	 5.285 	 16.275 	
-921 	 150 	 -280 	43.05 	 5.775 	 21.945 	
-918 	 139 	 -275 	42.98 	 6.16 	 27.335 	
-930 	 128 	 -261 	43.05 	 6.545 	 32.41 	
-944 	 124 	 -244 	43.33 	 6.825 	 36.995 	
-956 	 123 	 -230 	43.575 	 6.895 	 41.16 	
-973 	 109 	 -223 	43.925 	 6.72 	 44.45 	
-983 	 98 	 -222 	44.415 	 6.65 	 46.41 	
-978 	 89 	 -230 	45.045 	 6.615 	 46.48 	
-970 	 81 	 -237 	45.78 	 6.265 	 44.52 	
-957 	 71 	 -246 	46.655 	 6.09 	 40.845 	
-945 	 75 	 -254 	47.46 	 6.125 	 35.945 	
-944 	 74 	 -260 	48.055 	 6.3 	 30.835 	
-953 	 72 	 -264 	48.79 	 6.335 	 26.355 	
-956 	 77 	 -272 	49.665 	 6.335 	 23.065 	
-956 	 96 	 -276 	50.505 	 6.3 	 21.315 	
-964 	 109 	 -277 	51.275 	 6.16 	 21.175 	
-966 	 108 	 -279 	52.045 	 5.88 	 22.4 	
-963 	 107 	 -282 	52.815 	 5.495 	 24.64 	
-959 	 114 	 -285 	53.76 	 5.075 	 27.37 	
-960 	 117 	 -287 	54.355 	 4.795 	 30.415 	
-965 	 115 	 -291 	54.915 	 4.375 	 33.39 	
-964 	 116 	 -294 	55.65 	 3.885 	 35.91 	
-966 	 130 	 -294 	56.35 	 3.36 	 37.8 	
-970 	 138 	 -294 	56.63 	 2.87 	 39.06 	
-970 	 135 	 -293 	56.56 	 2.415 	 39.41 	
-970 	 141 	 -303 	56.63 	 1.89 	 38.955 	
-975 	 155 	 -317 	56.7 	 1.54 	 37.8 	
-989 	 173 	 -328 	56.7 	 1.05 	 36.26 	
-996 	 185 	 -326 	56.245 	 0.735 	 34.3 	
-1002 	 187 	 -320 	55.405 	 0.42 	 32.06 	
-1010 	 184 	 -327 	54.39 	 0.105 	 29.225 	
-1005 	 185 	 -340 	53.55 	 -0.315 	 25.515 	
-987 	 197 	 -346 	52.605 	 -0.735 	 20.895 	
-978 	 205 	 -351 	51.345 	 -0.875 	 16.03 	
-979 	 207 	 -352 	49.945 	 -0.805 	 11.41 	
-983 	 211 	 -354 	48.72 	 -0.98 	 7.665 	
-985 	 237 	 -360 	47.46 	 -1.085 	 5.425 	
-992 	 253 	 -356 	45.78 	 -1.12 	 5.075 	
-996 	 254 	 -348 	44.135 	 -1.26 	 6.51 	
-998 	 252 	 -344 	42.735 	 -1.715 	 9.31 	
-1002 	 266 	 -347 	41.335 	 -2.065 	 12.845 	
-996 	 266 	 -351 	39.9 	 -2.555 	 16.73 	
-991 	 253 	 -349 	38.5 	 -2.975 	 20.3 	
-987 	 235 	 -343 	37.205 	 -3.36 	 23.205 	
-986 	 214 	 -332 	35.945 	 -3.64 	 25.06 	
-985 	 195 	 -322 	34.685 	 -3.955 	 25.69 	
-988 	 186 	 -315 	33.425 	 -4.13 	 25.025 	
-989 	 183 	 -319 	32.41 	 -4.55 	 23.135 	
-986 	 187 	 -320 	31.29 	 -4.795 	 20.265 	
-982 	 191 	 -320 	30.065 	 -5.005 	 16.8 	
-985 	 187 	 -319 	28.77 	 -5.075 	 13.16 	
-992 	 193 	 -317 	27.51 	 -5.11 	 9.765 	
-999 	 211 	 -319 	26.32 	 -5.32 	 6.79 	
-999 	 231 	 -328 	24.955 	 -5.705 	 4.445 	
-995 	 244 	 -336 	23.485 	 -5.915 	 2.835 	
-992 	 248 	 -336 	22.225 	 -6.195 	 1.925 	
-996 	 250 	 -328 	20.755 	 -6.23 	 1.785 	
-986 	 241 	 -323 	19.32 	 -6.405 	 2.345 	
-978 	 240 	 -321 	18.06 	 -6.79 	 3.465 	
-976 	 236 	 -325 	17.045 	 -7.035 	 5.11 	
-977 	 234 	 -329 	15.96 	 -7.245 	 7.035 	
-975 	 227 	 -329 	15.05 	 -7.56 	 9.205 	
-974 	 223 	 -326 	14.14 	 -7.805 	 11.375 	
-974 	 216 	 -325 	13.51 	 -8.05 	 13.44 	
-973 	 203 	 -320 	12.95 	 -8.365 	 15.225 	
-971 	 196 	 -315 	12.53 	 -8.68 	 16.625 	
-974 	 195 	 -309 	12.145 	 -8.925 	 17.745 	
-975 	 192 	 -307 	11.865 	 -9.275 	 18.585 	
-978 	 186 	 -303 	11.585 	 -9.66 	 19.32 	
-987 	 177 	 -303 	11.515 	 -9.94 	 19.6 	
-994 	 168 	 -294 	11.55 	 -10.29 	 19.285 	
-991 	 163 	 -284 	11.62 	 -10.71 	 18.13 	
-979 	 150 	 -280 	11.62 	 -11.13 	 16.17 	
-971 	 150 	 -279 	12.04 	 -11.585 	 13.65 	
-962 	 152 	 -282 	12.355 	 -11.83 	 11.025 	
-959 	 154 	 -283 	12.635 	 -12.075 	 8.855 	
-963 	 155 	 -277 	12.985 	 -12.285 	 7.525 	
-967 	 161 	 -275 	13.37 	 -12.635 	 7.105 	
-963 	 180 	 -281 	13.965 	 -13.16 	 7.735 	
-958 	 191 	 -285 	14.315 	 -13.65 	 9.38 	
-964 	 197 	 -289 	14.56 	 -13.965 	 12.005 	
-974 	 204 	 -290 	14.945 	 -14.455 	 15.12 	
-975 	 215 	 -294 	15.33 	 -15.12 	 18.655 	
-973 	 220 	 -301 	15.435 	 -15.61 	 22.015 	
-980 	 221 	 -309 	15.645 	 -16.135 	 24.99 	
-986 	 222 	 -315 	15.925 	 -16.73 	 27.125 	
-985 	 217 	 -315 	16.1 	 -17.29 	 28.14 	
-977 	 204 	 -311 	16.1 	 -17.78 	 27.79 	
-968 	 188 	 -304 	16.135 	 -18.06 	 26.355 	
-964 	 183 	 -301 	16.625 	 -18.585 	 23.975 	
-966 	 185 	 -302 	16.73 	 -18.865 	 21.175 	
-973 	 177 	 -298 	16.835 	 -19.18 	 18.235 	
-976 	 173 	 -298 	17.255 	 -19.6 	 15.47 	
-973 	 177 	 -295 	17.675 	 -19.88 	 12.845 	
-976 	 180 	 -287 	18.06 	 -20.23 	 10.535 	
-977 	 170 	 -277 	18.235 	 -20.58 	 8.505 	
-967 	 165 	 -280 	18.655 	 -21.07 	 6.615 	
-960 	 174 	 -280 	19.39 	 -21.455 	 4.935 	
-962 	 181 	 -277 	19.81 	 -21.665 	 3.64 	
-968 	 172 	 -269 	20.09 	 -21.91 	 2.59 	
-963 	 169 	 -262 	20.37 	 -22.225 	 1.715 	
-956 	 175 	 -263 	20.895 	 -22.54 	 0.98 	
-955 	 174 	 -270 	21.245 	 -22.82 	 0.63 	
-958 	 168 	 -276 	21.525 	 -22.75 	 0.735 	
-968 	 162 	 -272 	21.77 	 -22.68 	 1.085 	
-980 	 161 	 -271 	22.015 	 -22.715 	 1.61 	
-981 	 158 	 -272 	22.085 	 -22.89 	 2.24 	
-976 	 146 	 -282 	21.98 	 -22.96 	 2.765 	
-972 	 144 	 -297 	22.05 	 -22.89 	 2.94 	
-976 	 159 	 -310 	22.155 	 -22.645 	 2.905 	
-979 	 170 	 -317 	22.015 	 -22.295 	 2.73 	
-974 	 171 	 -314 	21.63 	 -21.84 	 2.345 	
-961 	 182 	 -304 	21.245 	 -21.385 	 1.575 	
-940 	 192 	 -300 	20.72 	 -20.86 	 0.525 	
-920 	 201 	 -297 	19.915 	 -20.16 	 -0.98 	
-891 	 213 	 -296 	19.18 	 -19.355 	 -2.73 	
-868 	 233 	 -309 	18.48 	 -18.445 	 -4.515 	
-867 	 223 	 -320 	17.535 	 -17.15 	 -5.775 	
-882 	 198 	 -327 	16.59 	 -15.995 	 -6.265 	
-896 	 192 	 -325 	16.03 	 -14.945 	 -5.67 	
-904 	 206 	 -317 	15.505 	 -14.035 	 -3.85 	
-917 	 216 	 -313 	14.595 	 -13.09 	 -1.015 	
-932 	 210 	 -316 	13.86 	 -12.355 	 2.45 	
-938 	 203 	 -322 	13.475 	 -11.865 	 5.81 	
-935 	 201 	 -322 	12.985 	 -11.34 	 8.505 	
-935 	 195 	 -314 	12.285 	 -10.5 	 10.185 	
-942 	 184 	 -297 	11.655 	 -9.765 	 10.57 	
-943 	 182 	 -282 	11.27 	 -9.24 	 9.835 	
-943 	 183 	 -276 	10.745 	 -8.82 	 8.12 	
-942 	 177 	 -264 	10.115 	 -8.26 	 5.88 	
-948 	 176 	 -256 	9.625 	 -7.7 	 3.465 	
-951 	 184 	 -250 	9.205 	 -7.35 	 1.085 	
-950 	 195 	 -248 	8.715 	 -7.07 	 -0.91 	
-953 	 206 	 -250 	8.225 	 -6.86 	 -2.38 	
-953 	 213 	 -248 	7.91 	 -6.65 	 -3.08 	
-956 	 226 	 -243 	7.42 	 -6.51 	 -3.185 	
-963 	 227 	 -235 	6.86 	 -6.405 	 -2.765 	
-967 	 224 	 -229 	6.265 	 -6.545 	 -1.96 	
-961 	 221 	 -228 	5.81 	 -6.58 	 -1.015 	
-952 	 220 	 -225 	5.355 	 -6.615 	 -0.315 	
-953 	 216 	 -217 	4.97 	 -6.58 	 0.105 	
-950 	 205 	 -213 	4.55 	 -6.615 	 0.14 	
-941 	 204 	 -216 	4.235 	 -6.755 	 -0.175 	
-930 	 201 	 -224 	4.06 	 -6.755 	 -0.595 	
-930 	 199 	 -225 	3.85 	 -6.755 	 -1.085 	
-929 	 186 	 -221 	3.605 	 -6.65 	 -1.61 	
-923 	 181 	 -217 	3.5 	 -6.545 	 -2.24 	
-914 	 184 	 -223 	3.43 	 -6.65 	 -3.045 	
-911 	 188 	 -232 	3.395 	 -6.685 	 -4.235 	
-902 	 178 	 -239 	3.43 	 -6.615 	 -5.46 	
-896 	 175 	 -237 	3.57 	 -6.405 	 -6.86 	
-891 	 176 	 -231 	3.675 	 -6.23 	 -8.225 	
-887 	 175 	 -224 	3.78 	 -6.16 	 -9.415 	
-883 	 169 	 -217 	3.85 	 -6.125 	 -10.255 	
-886 	 166 	 -214 	4.095 	 -6.16 	 -10.78 	
-889 	 169 	 -214 	4.095 	 -6.055 	 -10.885 	
-889 	 174 	 -218 	4.235 	 -6.055 	 -10.71 	
-882 	 181 	 -225 	4.515 	 -6.055 	 -10.29 	
-882 	 192 	 -233 	4.655 	 -5.915 	 -9.38 	
-885 	 194 	 -232 	4.76 	 -5.845 	 -8.26 	
-893 	 188 	 -230 	4.585 	 -5.775 	 -6.895 	
-888 	 183 	 -232 	4.585 	 -5.915 	 -5.53 	
-880 	 181 	 -240 	4.62 	 -5.985 	 -4.375 	
-874 	 178 	 -249 	4.515 	 -5.775 	 -3.57 	
-874 	 172 	 -254 	4.48 	 -5.635 	 -3.115 	
-875 	 172 	 -254 	4.41 	 -5.565 	 -2.975 	
-877 	 177 	 -257 	4.41 	 -5.39 	 -2.87 	
-877 	 177 	 -260 	4.305 	 -5.355 	 -2.87 	
-883 	 178 	 -263 	4.13 	 -5.32 	 -2.835 	
-886 	 180 	 -266 	4.27 	 -5.25 	 -2.59 	
-893 	 178 	 -268 	4.165 	 -5.25 	 -2.275 	
-902 	 171 	 -261 	3.99 	 -5.11 	 -1.785 	
-906 	 159 	 -256 	4.06 	 -5.25 	 -1.365 	
-909 	 148 	 -255 	4.165 	 -5.425 	 -1.155 	
-906 	 143 	 -260 	4.375 	 -5.565 	 -1.33 	
-905 	 141 	 -258 	4.48 	 -5.53 	 -1.855 	
-908 	 137 	 -259 	4.62 	 -5.6 	 -2.59 	
-906 	 136 	 -262 	4.865 	 -5.705 	 -3.36 	
-908 	 140 	 -261 	5.145 	 -5.775 	 -3.99 	
-912 	 140 	 -264 	5.25 	 -5.74 	 -4.445 	
-918 	 137 	 -261 	5.425 	 -5.845 	 -4.48 	
-915 	 140 	 -260 	5.74 	 -5.95 	 -4.27 	
-913 	 148 	 -261 	5.845 	 -6.055 	 -3.815 	
-919 	 149 	 -265 	5.74 	 -5.95 	 -3.29 	
-919 	 160 	 -270 	5.95 	 -6.16 	 -2.765 	
-922 	 174 	 -279 	5.985 	 -6.265 	 -2.1 	
-932 	 187 	 -286 	6.055 	 -6.335 	 -1.365 	
-944 	 184 	 -282 	5.81 	 -6.265 	 -0.455 	
-951 	 174 	 -271 	5.775 	 -6.405 	 0.49 	
-949 	 171 	 -267 	5.705 	 -6.545 	 1.54 	
-943 	 176 	 -267 	5.705 	 -6.72 	 2.45 	
-935 	 185 	 -264 	5.67 	 -6.86 	 3.15 	
-931 	 179 	 -263 	5.565 	 -6.755 	 3.78 	
-939 	 187 	 -267 	5.53 	 -6.685 	 4.27 	
-940 	 187 	 -268 	5.285 	 -6.755 	 4.9 	
-933 	 189 	 -269 	5.11 	 -6.65 	 5.6 	
-936 	 193 	 -266 	5.075 	 -6.475 	 6.475 	
-941 	 198 	 -267 	4.935 	 -6.3 	 7.42 	
-939 	 196 	 -266 	4.69 	 -6.265 	 8.54 	
-935 	 195 	 -264 	4.585 	 -6.3 	 9.835 	
-945 	 204 	 -261 	4.445 	 -6.09 	 11.27 	
-954 	 210 	 -257 	4.2 	 -5.915 	 12.88 	
-966 	 209 	 -254 	3.92 	 -6.055 	 14.595 	
-977 	 210 	 -249 	3.71 	 -6.16 	 16.275 	
-997 	 216 	 -248 	3.535 	 -6.195 	 17.675 	
-1011 	 215 	 -244 	3.29 	 -6.335 	 18.445 	
-1015 	 208 	 -238 	2.94 	 -6.58 	 18.235 	
-1011 	 200 	 -232 	2.625 	 -6.86 	 16.8 	
-1007 	 195 	 -226 	2.45 	 -7.035 	 14.245 	
-998 	 196 	 -223 	2.065 	 -7.105 	 10.745 	
-989 	 198 	 -224 	1.75 	 -7.175 	 6.79 	
-985 	 200 	 -223 	1.4 	 -7.105 	 3.01 	
-987 	 208 	 -222 	1.155 	 -7.07 	 -0.175 	
-988 	 218 	 -221 	0.805 	 -7.07 	 -2.205 	
-991 	 226 	 -224 	0.175 	 -7 	 -3.22 	
-993 	 229 	 -231 	-0.175 	 -7.035 	 -3.15 	
-987 	 244 	 -237 	-0.525 	 -7.14 	 -2.24 	
-984 	 254 	 -243 	-0.98 	 -7.07 	 -0.56 	
-984 	 253 	 -243 	-1.61 	 -7.035 	 1.47 	
-989 	 244 	 -236 	-2.205 	 -7 	 3.675 	
-987 	 243 	 -233 	-2.555 	 -7.105 	 5.775 	
-980 	 242 	 -235 	-2.975 	 -7.175 	 7.665 	
-983 	 241 	 -236 	-3.465 	 -7.035 	 9.24 	
-994 	 237 	 -231 	-3.92 	 -6.86 	 10.325 	
-1001 	 231 	 -228 	-4.235 	 -6.895 	 10.745 	
-997 	 224 	 -224 	-4.655 	 -7 	 10.43 	
-991 	 215 	 -219 	-4.97 	 -6.79 	 9.31 	
-988 	 203 	 -214 	-5.355 	 -6.615 	 7.35 	
-979 	 195 	 -213 	-5.425 	 -6.615 	 4.725 	
-964 	 188 	 -213 	-5.6 	 -6.37 	 1.68 	
-962 	 185 	 -209 	-5.845 	 -5.915 	 -1.4 	
-967 	 184 	 -207 	-5.95 	 -5.635 	 -4.06 	
-964 	 187 	 -206 	-5.985 	 -5.46 	 -6.195 	
-960 	 193 	 -212 	-6.09 	 -5.32 	 -7.49 	
-960 	 197 	 -220 	-6.125 	 -5.005 	 -7.735 	
-963 	 204 	 -223 	-6.23 	 -4.69 	 -7.175 	
-969 	 215 	 -218 	-6.23 	 -4.55 	 -5.6 	
-971 	 222 	 -213 	-6.405 	 -4.515 	 -3.15 	
-969 	 225 	 -210 	-6.685 	 -4.34 	 -0.21 	
-964 	 228 	 -208 	-6.685 	 -4.235 	 2.94 	
-965 	 228 	 -204 	-6.895 	 -4.095 	 6.02 	
-959 	 231 	 -200 	-7.105 	 -4.025 	 8.785 	
-958 	 224 	 -197 	-7.455 	 -3.78 	 11.095 	
-958 	 225 	 -196 	-7.595 	 -3.71 	 12.635 	
-958 	 226 	 -199 	-7.805 	 -3.57 	 13.335 	
-958 	 220 	 -201 	-8.155 	 -3.15 	 13.16 	
-956 	 204 	 -193 	-8.33 	 -2.905 	 12.075 	
-946 	 197 	 -190 	-8.61 	 -2.59 	 10.115 	
-942 	 196 	 -186 	-8.89 	 -2.24 	 7.56 	
-943 	 190 	 -187 	-9.065 	 -1.82 	 4.76 	
-947 	 188 	 -188 	-9.415 	 -1.4 	 1.925 	
-948 	 191 	 -191 	-9.765 	 -1.155 	 -0.56 	
-945 	 206 	 -197 	-10.01 	 -0.805 	 -2.31 	
-942 	 219 	 -200 	-10.255 	 -0.595 	 -3.045 	
-945 	 226 	 -202 	-10.64 	 -0.28 	 -2.625 	
-949 	 228 	 -202 	-10.99 	 -0.14 	 -1.155 	
-946 	 233 	 -201 	-11.375 	 -0.07 	 1.26 	
-947 	 241 	 -194 	-11.795 	 0.175 	 4.34 	
-949 	 241 	 -188 	-12.355 	 0.315 	 7.735 	
-954 	 241 	 -186 	-12.74 	 0.385 	 10.885 	
-955 	 236 	 -194 	-13.265 	 0.35 	 13.44 	
-954 	 232 	 -203 	-13.72 	 0.42 	 15.19 	
-960 	 229 	 -210 	-14.035 	 0.525 	 15.89 	
-968 	 230 	 -208 	-14.455 	 0.805 	 15.435 	
-971 	 224 	 -210 	-14.84 	 0.875 	 13.86 	
-974 	 209 	 -210 	-15.435 	 1.12 	 11.235 	
-973 	 202 	 -209 	-15.82 	 1.26 	 7.875 	
-972 	 194 	 -202 	-16.135 	 1.435 	 3.955 	
-967 	 193 	 -200 	-16.555 	 1.715 	 -0.175 	
-965 	 198 	 -195 	-16.87 	 1.995 	 -4.2 	
-974 	 203 	 -193 	-17.325 	 2.24 	 -7.665 	
-978 	 208 	 -194 	-17.815 	 2.415 	 -10.43 	
-979 	 215 	 -194 	-18.27 	 2.45 	 -12.32 	
-971 	 229 	 -204 	-18.69 	 2.485 	 -13.405 	
-970 	 246 	 -214 	-19.32 	 2.555 	 -13.685 	
-963 	 252 	 -220 	-20.09 	 2.625 	 -13.09 	
-964 	 257 	 -223 	-20.755 	 2.765 	 -11.69 	
-966 	 265 	 -220 	-21.525 	 2.905 	 -9.485 	
-972 	 271 	 -216 	-22.33 	 2.94 	 -6.65 	
-976 	 272 	 -217 	-23.205 	 2.8 	 -3.29 	
-979 	 266 	 -219 	-24.01 	 2.695 	 0.14 	
-986 	 260 	 -222 	-24.885 	 2.765 	 3.22 	
-989 	 255 	 -222 	-25.62 	 2.835 	 5.39 	
-986 	 246 	 -222 	-26.355 	 2.66 	 6.335 	
-979 	 232 	 -223 	-27.02 	 2.555 	 5.915 	
-971 	 220 	 -223 	-27.65 	 2.625 	 4.165 	
-973 	 213 	 -222 	-28.28 	 2.73 	 1.26 	
-972 	 203 	 -220 	-28.7 	 2.695 	 -2.31 	
-968 	 197 	 -222 	-29.085 	 2.66 	 -6.16 	
-965 	 199 	 -220 	-29.33 	 2.695 	 -9.765 	
-968 	 202 	 -214 	-29.54 	 2.66 	 -12.635 	
-974 	 203 	 -204 	-29.82 	 2.555 	 -14.56 	
-974 	 200 	 -200 	-29.96 	 2.24 	 -15.505 	
-973 	 205 	 -198 	-30.03 	 1.89 	 -15.435 	
-978 	 215 	 -194 	-30.1 	 1.575 	 -14.7 	
-973 	 219 	 -188 	-30.17 	 1.295 	 -13.615 	
-970 	 214 	 -187 	-30.415 	 1.015 	 -12.355 	
-970 	 210 	 -190 	-30.52 	 0.735 	 -11.375 	
-960 	 220 	 -192 	-30.695 	 0.385 	 -10.815 	
-945 	 224 	 -195 	-30.94 	 0.21 	 -10.5 	
-941 	 222 	 -202 	-31.29 	 0.105 	 -10.36 	
-951 	 219 	 -209 	-31.64 	 0.14 	 -10.255 	
-961 	 227 	 -216 	-31.85 	 -0.035 	 -10.185 	
-963 	 235 	 -222 	-32.27 	 -0.175 	 -10.15 	
-961 	 224 	 -217 	-32.83 	 -0.21 	 -10.22 	
-960 	 213 	 -212 	-33.32 	 -0.07 	 -10.745 	
-962 	 213 	 -213 	-33.775 	 -0.035 	 -12.11 	
-950 	 213 	 -218 	-34.23 	 -0.105 	 -13.965 	
-938 	 210 	 -215 	-34.65 	 -0.035 	 -16.135 	
-944 	 201 	 -208 	-35.42 	 0.525 	 -18.235 	
-960 	 193 	 -210 	-36.12 	 0.875 	 -20.23 	
-955 	 200 	 -215 	-36.54 	 0.735 	 -22.05 	
-934 	 218 	 -223 	-36.995 	 0.77 	 -23.625 	
-926 	 223 	 -225 	-37.73 	 1.225 	 -24.85 	
-941 	 210 	 -220 	-38.605 	 1.855 	 -25.515 	
-945 	 219 	 -220 	-39.305 	 2.1 	 -25.76 	
-929 	 237 	 -223 	-40.005 	 2.065 	 -25.305 	
-917 	 242 	 -221 	-40.95 	 2.415 	 -23.905 	
-936 	 233 	 -216 	-41.895 	 2.94 	 -21.665 	
-948 	 231 	 -217 	-42.735 	 3.15 	 -18.83 	
-941 	 244 	 -217 	-43.365 	 2.975 	 -15.61 	
-932 	 248 	 -220 	-44.17 	 3.045 	 -12.075 	
-943 	 234 	 -219 	-45.01 	 3.5 	 -8.61 	
-956 	 223 	 -219 	-45.465 	 3.535 	 -5.53 	
-954 	 217 	 -215 	-45.92 	 3.36 	 -3.08 	
-949 	 197 	 -208 	-46.48 	 3.465 	 -1.505 	
-957 	 173 	 -200 	-46.865 	 3.78 	 -0.945 	
