STEVAL-MKI197V1 (LSM6DSOX)

A_X [mg] 	 A_Y [mg] 	 A_Z [mg] 	G_X [dps] 	 G_Y [dps] 	 G_Z [dps] 	
966 	 -272 	 -132 	10.885 	 -5.355 	 11.305 	
961 	 -273 	 -138 	10.815 	 -5.04 	 11.515 	
974 	 -268 	 -142 	10.71 	 -4.655 	 11.095 	
985 	 -263 	 -137 	10.675 	 -4.025 	 10.15 	
984 	 -270 	 -130 	10.465 	 -3.29 	 8.785 	
990 	 -284 	 -123 	10.15 	 -2.87 	 7.21 	
1004 	 -279 	 -122 	10.115 	 -2.415 	 5.635 	
996 	 -272 	 -118 	10.115 	 -1.715 	 4.375 	
982 	 -277 	 -111 	9.87 	 -1.05 	 3.395 	
970 	 -288 	 -103 	9.73 	 -0.805 	 2.66 	
968 	 -283 	 -109 	9.73 	 -0.455 	 1.925 	
962 	 -279 	 -112 	9.66 	 -0.07 	 0.91 	
960 	 -285 	 -112 	9.345 	 0.315 	 -0.42 	
968 	 -289 	 -111 	9.205 	 0.525 	 -2.31 	
975 	 -282 	 -109 	9.205 	 0.91 	 -4.48 	
969 	 -273 	 -105 	9.03 	 1.365 	 -6.685 	
960 	 -269 	 -106 	8.715 	 1.715 	 -8.61 	
959 	 -259 	 -112 	8.54 	 1.89 	 -9.8 	
959 	 -243 	 -112 	8.435 	 2.135 	 -10.185 	
954 	 -237 	 -111 	8.085 	 2.31 	 -9.555 	
946 	 -240 	 -107 	7.805 	 2.345 	 -7.91 	
945 	 -230 	 -107 	7.665 	 2.31 	 -5.74 	
947 	 -219 	 -108 	7.49 	 2.205 	 -3.15 	
947 	 -226 	 -106 	7.07 	 2.205 	 -0.385 	
949 	 -247 	 -111 	6.72 	 2.205 	 2.065 	
955 	 -249 	 -115 	6.615 	 2.17 	 3.85 	
960 	 -245 	 -112 	6.44 	 2.17 	 4.97 	
965 	 -260 	 -109 	5.95 	 2.345 	 5.355 	
967 	 -276 	 -111 	5.88 	 2.345 	 4.935 	
963 	 -275 	 -111 	5.845 	 2.555 	 3.99 	
957 	 -270 	 -108 	5.635 	 2.66 	 2.625 	
963 	 -282 	 -110 	5.425 	 2.59 	 1.155 	
968 	 -285 	 -109 	5.39 	 2.73 	 -0.35 	
971 	 -270 	 -108 	5.39 	 2.905 	 -1.75 	
966 	 -263 	 -104 	5.075 	 3.185 	 -2.765 	
966 	 -272 	 -104 	4.83 	 3.15 	 -3.29 	
959 	 -272 	 -109 	4.83 	 3.255 	 -3.535 	
946 	 -258 	 -117 	4.97 	 3.255 	 -3.465 	
942 	 -254 	 -119 	4.62 	 3.36 	 -3.045 	
943 	 -262 	 -113 	4.305 	 3.36 	 -2.555 	
952 	 -268 	 -109 	4.34 	 3.36 	 -2.1 	
942 	 -262 	 -102 	4.305 	 3.605 	 -1.855 	
948 	 -268 	 -107 	4.13 	 3.57 	 -1.715 	
966 	 -278 	 -109 	4.095 	 3.535 	 -1.645 	
978 	 -280 	 -109 	4.06 	 3.745 	 -1.785 	
981 	 -273 	 -109 	4.095 	 4.095 	 -1.89 	
981 	 -264 	 -110 	3.99 	 4.34 	 -2.03 	
987 	 -259 	 -107 	3.885 	 4.41 	 -2.03 	
989 	 -256 	 -101 	3.71 	 4.795 	 -1.785 	
975 	 -253 	 -99 	3.675 	 5.18 	 -1.225 	
964 	 -249 	 -99 	3.5 	 5.285 	 -0.385 	
955 	 -246 	 -104 	3.22 	 5.355 	 0.735 	
948 	 -245 	 -111 	3.185 	 5.39 	 1.96 	
937 	 -243 	 -115 	3.045 	 5.39 	 3.045 	
930 	 -244 	 -114 	2.73 	 5.32 	 3.745 	
945 	 -260 	 -106 	2.52 	 5.005 	 3.71 	
956 	 -266 	 -104 	2.38 	 4.935 	 2.87 	
970 	 -260 	 -102 	2.345 	 4.935 	 1.4 	
968 	 -258 	 -95 	1.89 	 5.04 	 -0.28 	
968 	 -266 	 -88 	1.61 	 4.97 	 -1.995 	
973 	 -271 	 -91 	1.47 	 4.795 	 -3.36 	
974 	 -255 	 -98 	1.505 	 4.69 	 -4.235 	
966 	 -230 	 -97 	1.155 	 4.62 	 -4.515 	
959 	 -226 	 -93 	0.665 	 4.48 	 -4.13 	
965 	 -223 	 -99 	0.35 	 4.13 	 -3.185 	
961 	 -212 	 -98 	0.175 	 3.85 	 -1.75 	
946 	 -206 	 -94 	-0.28 	 3.605 	 0.07 	
940 	 -222 	 -85 	-0.84 	 3.15 	 1.995 	
946 	 -234 	 -83 	-1.19 	 2.695 	 3.885 	
946 	 -239 	 -85 	-1.295 	 2.17 	 5.46 	
938 	 -244 	 -87 	-1.645 	 1.855 	 6.51 	
941 	 -257 	 -89 	-1.82 	 1.365 	 6.79 	
951 	 -263 	 -89 	-2.1 	 1.015 	 6.405 	
962 	 -264 	 -91 	-2.275 	 0.63 	 5.46 	
957 	 -268 	 -88 	-2.345 	 0.385 	 4.025 	
958 	 -271 	 -86 	-2.555 	 0.07 	 2.45 	
970 	 -270 	 -84 	-2.695 	 -0.28 	 0.91 	
973 	 -268 	 -86 	-2.765 	 -0.525 	 -0.385 	
959 	 -265 	 -87 	-2.8 	 -0.7 	 -1.19 	
948 	 -260 	 -83 	-2.87 	 -0.98 	 -1.47 	
950 	 -266 	 -80 	-2.94 	 -1.505 	 -1.295 	
951 	 -272 	 -80 	-2.975 	 -1.855 	 -0.735 	
945 	 -275 	 -82 	-2.73 	 -2.135 	 -0.07 	
940 	 -270 	 -85 	-2.625 	 -2.555 	 0.49 	
949 	 -267 	 -85 	-2.765 	 -2.905 	 0.91 	
960 	 -270 	 -81 	-2.73 	 -3.185 	 1.225 	
955 	 -275 	 -80 	-2.52 	 -3.29 	 1.68 	
949 	 -277 	 -84 	-2.52 	 -3.605 	 2.135 	
962 	 -279 	 -93 	-2.38 	 -3.99 	 2.625 	
968 	 -282 	 -96 	-2.205 	 -4.06 	 3.185 	
966 	 -284 	 -95 	-2.03 	 -4.025 	 3.605 	
959 	 -288 	 -89 	-1.89 	 -4.095 	 3.675 	
962 	 -292 	 -92 	-1.82 	 -4.235 	 3.535 	
966 	 -292 	 -98 	-1.715 	 -4.2 	 3.115 	
963 	 -296 	 -102 	-1.715 	 -4.025 	 2.485 	
959 	 -300 	 -99 	-1.575 	 -3.99 	 1.75 	
965 	 -304 	 -97 	-1.435 	 -3.99 	 0.98 	
976 	 -306 	 -98 	-1.33 	 -3.885 	 0.21 	
971 	 -308 	 -95 	-1.26 	 -3.605 	 -0.665 	
967 	 -309 	 -99 	-1.12 	 -3.43 	 -1.68 	
972 	 -309 	 -104 	-0.91 	 -3.29 	 -2.94 	
983 	 -299 	 -102 	-0.805 	 -2.94 	 -4.2 	
983 	 -285 	 -94 	-0.77 	 -2.52 	 -5.425 	
990 	 -274 	 -89 	-0.84 	 -2.275 	 -6.23 	
993 	 -272 	 -91 	-0.805 	 -2.065 	 -6.51 	
991 	 -271 	 -95 	-0.98 	 -1.645 	 -5.985 	
982 	 -274 	 -97 	-1.085 	 -1.365 	 -4.83 	
975 	 -271 	 -99 	-1.085 	 -1.085 	 -3.325 	
972 	 -254 	 -105 	-1.12 	 -0.945 	 -1.855 	
970 	 -247 	 -110 	-1.295 	 -0.595 	 -0.63 	
975 	 -254 	 -106 	-1.645 	 -0.35 	 0.175 	
980 	 -268 	 -95 	-2.065 	 0 	 0.42 	
992 	 -279 	 -87 	-2.1 	 0.175 	 0 	
1004 	 -276 	 -91 	-2.38 	 0.49 	 -1.05 	
1018 	 -269 	 -93 	-2.73 	 1.085 	 -2.485 	
1017 	 -264 	 -91 	-3.185 	 1.715 	 -4.2 	
1014 	 -253 	 -91 	-3.57 	 2.275 	 -5.915 	
1018 	 -237 	 -94 	-3.99 	 2.73 	 -7.42 	
1021 	 -228 	 -92 	-4.62 	 3.36 	 -8.4 	
1004 	 -224 	 -83 	-5.355 	 3.99 	 -8.575 	
982 	 -225 	 -78 	-5.95 	 4.375 	 -7.945 	
981 	 -221 	 -80 	-6.51 	 4.48 	 -6.685 	
978 	 -206 	 -72 	-7.245 	 4.83 	 -4.97 	
961 	 -186 	 -74 	-8.015 	 5.005 	 -3.01 	
949 	 -190 	 -78 	-8.995 	 5.075 	 -0.91 	
951 	 -209 	 -77 	-10.01 	 4.83 	 0.945 	
955 	 -217 	 -73 	-11.025 	 4.76 	 2.52 	
943 	 -210 	 -69 	-11.865 	 4.76 	 3.465 	
940 	 -193 	 -80 	-13.055 	 4.48 	 4.025 	
949 	 -184 	 -94 	-14.28 	 4.025 	 4.375 	
951 	 -187 	 -99 	-15.75 	 3.885 	 4.585 	
945 	 -183 	 -99 	-17.045 	 3.64 	 4.83 	
947 	 -169 	 -101 	-18.375 	 3.15 	 5.285 	
961 	 -159 	 -106 	-19.845 	 2.485 	 6.16 	
965 	 -162 	 -105 	-21.49 	 2.275 	 7.28 	
960 	 -162 	 -102 	-23.065 	 2.1 	 8.715 	
956 	 -168 	 -105 	-24.57 	 1.715 	 10.57 	
951 	 -166 	 -105 	-25.97 	 1.155 	 12.6 	
946 	 -173 	 -102 	-27.51 	 0.84 	 14.875 	
942 	 -182 	 -96 	-28.945 	 0.455 	 16.765 	
945 	 -199 	 -98 	-30.275 	 0.035 	 18.34 	
961 	 -218 	 -103 	-31.5 	 -0.28 	 19.355 	
963 	 -233 	 -102 	-32.585 	 -0.21 	 19.635 	
952 	 -246 	 -97 	-33.705 	 -0.14 	 19.215 	
951 	 -255 	 -97 	-34.65 	 -0.35 	 17.99 	
957 	 -263 	 -96 	-35.49 	 -0.42 	 16.17 	
959 	 -279 	 -99 	-36.295 	 -0.35 	 13.93 	
957 	 -296 	 -96 	-37.1 	 -0.07 	 11.445 	
960 	 -306 	 -97 	-37.555 	 -0.07 	 8.785 	
964 	 -292 	 -94 	-37.905 	 0 	 6.09 	
968 	 -280 	 -100 	-38.29 	 0.21 	 3.605 	
971 	 -274 	 -107 	-38.85 	 0.56 	 1.505 	
978 	 -272 	 -111 	-39.2 	 0.77 	 -0.035 	
978 	 -272 	 -111 	-39.55 	 1.155 	 -0.98 	
971 	 -265 	 -107 	-39.655 	 1.505 	 -1.19 	
962 	 -257 	 -104 	-40.005 	 1.715 	 -0.84 	
965 	 -251 	 -109 	-40.285 	 1.925 	 0.035 	
960 	 -233 	 -116 	-40.425 	 2.275 	 1.365 	
954 	 -225 	 -121 	-40.565 	 2.625 	 3.15 	
962 	 -249 	 -124 	-40.88 	 2.835 	 5.145 	
967 	 -270 	 -123 	-40.81 	 3.15 	 7.14 	
962 	 -274 	 -121 	-40.635 	 3.605 	 8.82 	
955 	 -273 	 -118 	-40.6 	 4.025 	 10.115 	
952 	 -284 	 -118 	-40.705 	 4.305 	 10.885 	
969 	 -302 	 -119 	-40.46 	 4.515 	 11.025 	
987 	 -309 	 -125 	-40.145 	 5.04 	 10.57 	
984 	 -307 	 -127 	-39.795 	 5.635 	 9.625 	
986 	 -308 	 -126 	-39.515 	 6.195 	 8.26 	
988 	 -303 	 -127 	-39.235 	 6.65 	 6.65 	
991 	 -303 	 -127 	-39.06 	 7.245 	 5.04 	
990 	 -313 	 -132 	-38.815 	 7.735 	 3.675 	
986 	 -316 	 -134 	-38.395 	 8.225 	 2.38 	
978 	 -309 	 -134 	-37.975 	 8.61 	 1.19 	
969 	 -294 	 -138 	-37.73 	 9.03 	 0.21 	
959 	 -284 	 -135 	-37.73 	 9.45 	 -0.525 	
954 	 -299 	 -128 	-37.66 	 9.66 	 -0.84 	
951 	 -306 	 -128 	-37.24 	 9.835 	 -1.05 	
947 	 -299 	 -132 	-36.995 	 9.975 	 -1.015 	
950 	 -296 	 -132 	-36.82 	 10.15 	 -0.91 	
947 	 -302 	 -127 	-36.785 	 10.22 	 -0.805 	
947 	 -303 	 -122 	-36.645 	 10.185 	 -0.875 	
960 	 -293 	 -127 	-36.505 	 10.255 	 -1.155 	
974 	 -277 	 -129 	-36.4 	 10.29 	 -1.575 	
976 	 -269 	 -130 	-36.47 	 10.465 	 -2.03 	
973 	 -264 	 -125 	-36.54 	 10.64 	 -2.45 	
970 	 -254 	 -124 	-36.645 	 10.745 	 -2.73 	
968 	 -252 	 -129 	-36.75 	 10.71 	 -2.8 	
959 	 -259 	 -134 	-36.89 	 10.745 	 -2.555 	
949 	 -263 	 -135 	-36.855 	 10.64 	 -2.415 	
949 	 -254 	 -141 	-36.785 	 10.605 	 -2.345 	
948 	 -249 	 -140 	-36.715 	 10.535 	 -2.485 	
945 	 -260 	 -132 	-36.785 	 10.465 	 -2.66 	
946 	 -270 	 -125 	-36.75 	 10.36 	 -3.115 	
960 	 -268 	 -124 	-36.47 	 10.045 	 -3.605 	
968 	 -257 	 -129 	-36.26 	 10.01 	 -4.165 	
965 	 -263 	 -125 	-36.295 	 10.255 	 -4.445 	
955 	 -282 	 -116 	-35.875 	 10.15 	 -4.445 	
957 	 -283 	 -110 	-35.385 	 10.045 	 -4.2 	
961 	 -276 	 -106 	-34.79 	 9.87 	 -3.675 	
962 	 -280 	 -104 	-34.475 	 9.905 	 -2.94 	
956 	 -283 	 -105 	-33.985 	 9.905 	 -2.135 	
948 	 -275 	 -104 	-33.25 	 9.765 	 -1.575 	
950 	 -269 	 -109 	-32.725 	 9.73 	 -1.19 	
952 	 -282 	 -115 	-32.2 	 9.59 	 -0.98 	
954 	 -291 	 -113 	-31.5 	 9.52 	 -1.085 	
956 	 -286 	 -111 	-30.66 	 9.415 	 -1.645 	
960 	 -277 	 -103 	-30.065 	 9.415 	 -2.38 	
959 	 -296 	 -93 	-29.61 	 9.38 	 -3.115 	
958 	 -322 	 -94 	-28.875 	 9.31 	 -3.955 	
961 	 -318 	 -96 	-27.685 	 9.1 	 -4.76 	
960 	 -303 	 -104 	-26.81 	 8.995 	 -5.39 	
951 	 -289 	 -105 	-26.145 	 9.03 	 -5.845 	
944 	 -285 	 -100 	-25.445 	 8.89 	 -6.055 	
955 	 -289 	 -101 	-24.675 	 8.47 	 -6.16 	
966 	 -280 	 -114 	-23.87 	 8.295 	 -5.95 	
965 	 -271 	 -117 	-23.17 	 8.365 	 -5.53 	
959 	 -260 	 -113 	-22.47 	 8.19 	 -5.04 	
963 	 -256 	 -112 	-21.98 	 8.12 	 -4.375 	
968 	 -261 	 -114 	-21.385 	 7.945 	 -3.605 	
966 	 -262 	 -113 	-20.685 	 7.91 	 -2.905 	
965 	 -256 	 -112 	-20.09 	 7.875 	 -2.275 	
968 	 -251 	 -111 	-19.425 	 7.595 	 -1.715 	
964 	 -251 	 -107 	-19.005 	 7.49 	 -1.155 	
962 	 -264 	 -104 	-18.585 	 7.455 	 -0.56 	
962 	 -274 	 -104 	-17.92 	 7.315 	 0 	
969 	 -272 	 -105 	-17.115 	 7.105 	 0.56 	
968 	 -268 	 -102 	-16.485 	 7 	 0.98 	
963 	 -272 	 -102 	-16.065 	 6.895 	 1.365 	
967 	 -276 	 -98 	-15.54 	 6.895 	 1.68 	
970 	 -275 	 -95 	-14.91 	 6.685 	 1.96 	
974 	 -276 	 -96 	-14.35 	 6.615 	 2.205 	
983 	 -269 	 -105 	-13.825 	 6.475 	 2.24 	
980 	 -247 	 -111 	-13.37 	 6.65 	 2.1 	
973 	 -239 	 -113 	-13.125 	 6.65 	 1.855 	
983 	 -249 	 -112 	-13.02 	 6.615 	 1.54 	
992 	 -259 	 -110 	-12.775 	 6.65 	 1.295 	
995 	 -254 	 -108 	-12.425 	 6.895 	 1.085 	
989 	 -240 	 -108 	-12.25 	 7.035 	 1.05 	
973 	 -228 	 -107 	-12.32 	 7.175 	 1.26 	
965 	 -235 	 -111 	-12.285 	 7.035 	 1.645 	
976 	 -232 	 -117 	-12.215 	 7 	 2.1 	
964 	 -222 	 -117 	-12.215 	 7.175 	 2.8 	
953 	 -242 	 -109 	-12.425 	 7.175 	 3.43 	
961 	 -244 	 -110 	-12.355 	 6.93 	 3.92 	
975 	 -231 	 -113 	-12.25 	 6.825 	 4.34 	
968 	 -227 	 -112 	-12.425 	 7.035 	 4.62 	
961 	 -253 	 -110 	-12.81 	 7.175 	 4.76 	
972 	 -264 	 -113 	-12.67 	 6.93 	 4.55 	
986 	 -248 	 -110 	-12.46 	 7 	 4.13 	
980 	 -229 	 -101 	-12.635 	 7.21 	 3.57 	
966 	 -224 	 -96 	-12.95 	 7.245 	 3.045 	
971 	 -229 	 -96 	-13.23 	 7.14 	 2.73 	
984 	 -236 	 -99 	-13.44 	 7.14 	 2.94 	
978 	 -244 	 -93 	-13.545 	 7.315 	 3.675 	
969 	 -236 	 -91 	-13.65 	 7.35 	 4.76 	
968 	 -229 	 -90 	-13.65 	 7.175 	 5.95 	
978 	 -227 	 -86 	-13.93 	 7.105 	 7.175 	
984 	 -233 	 -87 	-14.28 	 7.21 	 8.225 	
980 	 -236 	 -87 	-14.42 	 7.315 	 8.855 	
979 	 -239 	 -86 	-14.63 	 7.315 	 9.065 	
983 	 -255 	 -86 	-14.945 	 7.28 	 8.855 	
981 	 -260 	 -85 	-14.945 	 7.315 	 8.12 	
975 	 -253 	 -79 	-15.015 	 7.385 	 6.86 	
974 	 -245 	 -82 	-15.295 	 7.315 	 5.25 	
974 	 -256 	 -82 	-15.575 	 7.28 	 3.64 	
968 	 -265 	 -78 	-15.68 	 7.35 	 2.03 	
960 	 -259 	 -77 	-15.715 	 7.315 	 0.805 	
954 	 -245 	 -77 	-15.715 	 7.035 	 -0.035 	
950 	 -241 	 -78 	-15.855 	 6.72 	 -0.28 	
944 	 -242 	 -81 	-16.1 	 6.545 	 -0.07 	
938 	 -239 	 -80 	-16.135 	 6.195 	 0.455 	
939 	 -235 	 -85 	-16.17 	 5.74 	 1.26 	
940 	 -236 	 -86 	-16.24 	 5.355 	 2.205 	
944 	 -248 	 -83 	-16.345 	 5.005 	 3.08 	
948 	 -253 	 -82 	-16.38 	 4.76 	 3.71 	
951 	 -254 	 -79 	-16.38 	 4.445 	 3.99 	
954 	 -250 	 -81 	-16.31 	 4.025 	 3.815 	
952 	 -250 	 -82 	-16.345 	 3.745 	 3.36 	
948 	 -246 	 -77 	-16.485 	 3.64 	 2.73 	
942 	 -257 	 -76 	-16.52 	 3.29 	 2.135 	
946 	 -272 	 -75 	-16.555 	 2.835 	 1.61 	
949 	 -274 	 -75 	-16.345 	 2.45 	 1.26 	
950 	 -263 	 -71 	-16.205 	 2.24 	 0.945 	
949 	 -257 	 -69 	-16.205 	 1.925 	 0.665 	
950 	 -264 	 -69 	-16.1 	 1.61 	 0.42 	
955 	 -270 	 -73 	-15.995 	 1.19 	 0.105 	
959 	 -261 	 -75 	-15.715 	 0.875 	 -0.21 	
957 	 -258 	 -74 	-15.61 	 0.735 	 -0.42 	
954 	 -264 	 -72 	-15.505 	 0.35 	 -0.56 	
954 	 -261 	 -72 	-15.225 	 0 	 -0.665 	
951 	 -260 	 -71 	-15.015 	 -0.245 	 -0.525 	
951 	 -272 	 -71 	-14.875 	 -0.595 	 -0.14 	
949 	 -278 	 -72 	-14.56 	 -0.84 	 0.315 	
950 	 -276 	 -71 	-14.14 	 -1.19 	 0.805 	
955 	 -264 	 -70 	-13.79 	 -1.54 	 1.155 	
957 	 -256 	 -72 	-13.72 	 -1.68 	 1.4 	
962 	 -261 	 -76 	-13.545 	 -1.925 	 1.505 	
975 	 -261 	 -81 	-13.195 	 -2.205 	 1.47 	
983 	 -249 	 -86 	-12.915 	 -2.205 	 1.295 	
978 	 -244 	 -89 	-12.845 	 -2.24 	 0.98 	
981 	 -246 	 -93 	-12.845 	 -2.205 	 0.455 	
988 	 -250 	 -98 	-12.81 	 -2.24 	 -0.175 	
990 	 -253 	 -101 	-12.6 	 -2.17 	 -0.945 	
985 	 -259 	 -105 	-12.495 	 -1.995 	 -1.75 	
982 	 -265 	 -104 	-12.32 	 -2.03 	 -2.8 	
986 	 -261 	 -107 	-12.215 	 -1.855 	 -3.92 	
986 	 -262 	 -104 	-11.935 	 -1.82 	 -5.075 	
985 	 -264 	 -101 	-11.935 	 -1.61 	 -6.23 	
984 	 -266 	 -100 	-11.725 	 -1.575 	 -7.21 	
985 	 -258 	 -103 	-11.375 	 -1.505 	 -7.98 	
980 	 -245 	 -100 	-11.235 	 -1.225 	 -8.4 	
975 	 -245 	 -93 	-11.165 	 -1.085 	 -8.47 	
976 	 -243 	 -90 	-10.99 	 -1.015 	 -8.085 	
980 	 -233 	 -90 	-10.815 	 -0.945 	 -7.175 	
976 	 -233 	 -91 	-10.71 	 -0.91 	 -5.635 	
969 	 -242 	 -89 	-10.535 	 -0.875 	 -3.64 	
963 	 -234 	 -86 	-10.395 	 -0.91 	 -1.505 	
969 	 -219 	 -86 	-10.15 	 -0.84 	 0.595 	
972 	 -218 	 -90 	-10.22 	 -0.91 	 2.625 	
976 	 -241 	 -89 	-10.325 	 -0.735 	 4.27 	
982 	 -262 	 -91 	-10.115 	 -0.63 	 5.285 	
985 	 -267 	 -95 	-9.8 	 -0.56 	 5.53 	
986 	 -265 	 -95 	-9.59 	 -0.42 	 5.005 	
988 	 -271 	 -93 	-9.45 	 -0.175 	 3.78 	
990 	 -282 	 -91 	-9.345 	 0.175 	 2.03 	
993 	 -289 	 -91 	-9.065 	 0.315 	 0.035 	
991 	 -293 	 -90 	-8.855 	 0.63 	 -2.03 	
984 	 -283 	 -91 	-8.4 	 0.805 	 -3.955 	
978 	 -264 	 -90 	-8.015 	 1.05 	 -5.46 	
969 	 -252 	 -89 	-7.875 	 1.19 	 -6.51 	
961 	 -252 	 -89 	-7.875 	 1.33 	 -6.86 	
961 	 -258 	 -93 	-7.42 	 1.225 	 -6.58 	
966 	 -254 	 -96 	-7.105 	 1.19 	 -5.915 	
969 	 -251 	 -94 	-6.93 	 1.295 	 -4.9 	
970 	 -250 	 -90 	-6.545 	 1.225 	 -3.675 	
967 	 -250 	 -85 	-6.335 	 1.33 	 -2.31 	
973 	 -246 	 -86 	-5.985 	 1.225 	 -0.98 	
972 	 -247 	 -88 	-5.705 	 1.225 	 0.21 	
973 	 -245 	 -91 	-5.495 	 1.33 	 1.12 	
965 	 -244 	 -95 	-5.075 	 1.155 	 1.785 	
963 	 -246 	 -98 	-4.83 	 1.05 	 2.135 	
962 	 -245 	 -100 	-4.655 	 1.155 	 2.17 	
952 	 -233 	 -97 	-4.34 	 1.085 	 1.995 	
953 	 -241 	 -98 	-4.27 	 0.98 	 1.82 	
959 	 -260 	 -98 	-4.025 	 0.7 	 1.645 	
959 	 -254 	 -98 	-3.57 	 0.665 	 1.47 	
946 	 -218 	 -93 	-3.325 	 0.63 	 1.365 	
926 	 -206 	 -90 	-3.57 	 0.385 	 1.61 	
934 	 -234 	 -94 	-3.815 	 -0.21 	 2.275 	
948 	 -244 	 -102 	-3.535 	 -0.49 	 3.01 	
956 	 -222 	 -102 	-3.22 	 -0.665 	 3.78 	
949 	 -214 	 -96 	-3.605 	 -0.735 	 4.48 	
956 	 -232 	 -92 	-3.85 	 -1.19 	 4.865 	
969 	 -239 	 -94 	-3.815 	 -1.435 	 4.725 	
981 	 -230 	 -99 	-3.78 	 -1.575 	 4.095 	
980 	 -235 	 -95 	-4.13 	 -1.645 	 3.15 	
984 	 -254 	 -86 	-4.375 	 -1.715 	 1.96 	
991 	 -255 	 -83 	-4.34 	 -1.925 	 0.455 	
992 	 -243 	 -88 	-4.34 	 -1.855 	 -0.98 	
980 	 -245 	 -86 	-4.585 	 -1.855 	 -2.03 	
973 	 -259 	 -82 	-4.62 	 -1.96 	 -2.8 	
974 	 -255 	 -87 	-4.375 	 -2.275 	 -3.325 	
970 	 -235 	 -87 	-4.27 	 -2.345 	 -3.5 	
969 	 -232 	 -84 	-4.48 	 -2.485 	 -3.465 	
974 	 -240 	 -82 	-4.41 	 -2.73 	 -3.36 	
981 	 -228 	 -83 	-4.095 	 -2.905 	 -3.29 	
985 	 -201 	 -83 	-4.025 	 -2.94 	 -3.045 	
988 	 -201 	 -87 	-4.27 	 -3.045 	 -2.625 	
992 	 -223 	 -89 	-4.305 	 -3.115 	 -2.1 	
998 	 -233 	 -89 	-3.955 	 -3.29 	 -1.54 	
1001 	 -232 	 -88 	-3.64 	 -3.325 	 -1.05 	
997 	 -226 	 -82 	-3.465 	 -3.29 	 -0.665 	
995 	 -234 	 -74 	-3.29 	 -3.43 	 -0.525 	
996 	 -244 	 -74 	-3.01 	 -3.64 	 -0.56 	
994 	 -250 	 -76 	-2.59 	 -3.745 	 -0.595 	
978 	 -252 	 -73 	-2.24 	 -3.85 	 -0.595 	
964 	 -257 	 -73 	-1.785 	 -4.13 	 -0.63 	
962 	 -265 	 -70 	-1.225 	 -4.445 	 -0.595 	
963 	 -282 	 -76 	-0.63 	 -4.97 	 -0.49 	
959 	 -292 	 -72 	-0.14 	 -5.25 	 -0.49 	
953 	 -294 	 -66 	0.7 	 -5.6 	 -0.315 	
949 	 -292 	 -70 	1.505 	 -6.125 	 -0.175 	
946 	 -297 	 -76 	2.205 	 -6.615 	 -0.035 	
943 	 -301 	 -82 	3.045 	 -7.21 	 -0.105 	
939 	 -296 	 -87 	3.85 	 -7.56 	 -0.455 	
938 	 -292 	 -92 	4.865 	 -7.98 	 -1.155 	
940 	 -291 	 -93 	5.635 	 -8.505 	 -2.135 	
945 	 -298 	 -89 	6.44 	 -8.82 	 -3.185 	
944 	 -297 	 -91 	7.35 	 -9.1 	 -4.375 	
937 	 -284 	 -95 	8.26 	 -9.45 	 -5.25 	
938 	 -283 	 -97 	9.1 	 -9.94 	 -5.95 	
945 	 -283 	 -99 	10.01 	 -10.29 	 -6.37 	
946 	 -284 	 -99 	11.025 	 -10.605 	 -6.545 	
940 	 -286 	 -97 	11.9 	 -10.92 	 -6.475 	
942 	 -288 	 -94 	12.81 	 -11.34 	 -6.265 	
948 	 -286 	 -92 	13.93 	 -11.76 	 -5.915 	
949 	 -282 	 -92 	14.875 	 -11.97 	 -5.39 	
946 	 -280 	 -94 	15.645 	 -12.18 	 -4.935 	
949 	 -289 	 -94 	16.59 	 -12.565 	 -4.55 	
954 	 -292 	 -94 	17.5 	 -12.845 	 -4.27 	
954 	 -285 	 -97 	18.655 	 -13.02 	 -4.27 	
951 	 -282 	 -102 	19.46 	 -13.195 	 -4.48 	
958 	 -290 	 -105 	20.265 	 -13.44 	 -5.11 	
965 	 -301 	 -105 	21.245 	 -13.58 	 -6.195 	
966 	 -301 	 -104 	22.435 	 -13.65 	 -7.77 	
965 	 -294 	 -107 	23.45 	 -13.65 	 -9.695 	
975 	 -297 	 -109 	24.36 	 -13.72 	 -11.865 	
981 	 -301 	 -108 	25.235 	 -13.51 	 -14.14 	
985 	 -295 	 -105 	26.39 	 -13.37 	 -16.24 	
987 	 -279 	 -108 	27.405 	 -13.195 	 -18.025 	
983 	 -263 	 -103 	28.315 	 -12.95 	 -19.18 	
986 	 -256 	 -104 	29.225 	 -12.845 	 -19.46 	
996 	 -248 	 -109 	30.24 	 -12.67 	 -19.005 	
995 	 -240 	 -109 	31.08 	 -12.355 	 -17.64 	
985 	 -235 	 -107 	31.885 	 -12.075 	 -15.435 	
978 	 -225 	 -107 	32.795 	 -12.04 	 -12.46 	
977 	 -215 	 -110 	33.705 	 -11.97 	 -8.995 	
969 	 -216 	 -110 	34.405 	 -11.865 	 -5.11 	
963 	 -218 	 -114 	35.07 	 -11.865 	 -0.98 	
961 	 -221 	 -119 	35.7 	 -11.9 	 3.115 	
956 	 -226 	 -123 	36.47 	 -11.935 	 6.93 	
950 	 -237 	 -127 	36.995 	 -11.97 	 10.29 	
956 	 -244 	 -132 	37.625 	 -12.11 	 13.055 	
965 	 -252 	 -135 	38.255 	 -12.145 	 15.015 	
975 	 -262 	 -132 	38.85 	 -12.11 	 16.1 	
976 	 -273 	 -128 	39.27 	 -11.865 	 16.31 	
983 	 -281 	 -131 	39.865 	 -11.83 	 15.715 	
990 	 -284 	 -132 	40.285 	 -11.585 	 14.455 	
992 	 -288 	 -128 	40.74 	 -11.375 	 12.67 	
989 	 -291 	 -128 	41.23 	 -11.06 	 10.605 	
985 	 -283 	 -128 	41.65 	 -10.78 	 8.4 	
987 	 -278 	 -133 	41.86 	 -10.535 	 6.3 	
986 	 -277 	 -132 	42.14 	 -10.255 	 4.27 	
985 	 -267 	 -131 	42.56 	 -10.045 	 2.59 	
985 	 -260 	 -136 	42.7 	 -9.695 	 1.33 	
966 	 -250 	 -133 	42.875 	 -9.59 	 0.315 	
973 	 -250 	 -135 	42.945 	 -9.66 	 -0.175 	
976 	 -246 	 -135 	43.05 	 -9.45 	 -0.42 	
969 	 -244 	 -133 	43.085 	 -9.135 	 -0.315 	
963 	 -237 	 -130 	43.225 	 -9.1 	 0.105 	
963 	 -230 	 -128 	43.225 	 -9.065 	 0.91 	
965 	 -234 	 -126 	43.19 	 -9.065 	 1.89 	
970 	 -241 	 -122 	43.155 	 -8.96 	 3.045 	
973 	 -247 	 -120 	43.05 	 -8.75 	 4.305 	
975 	 -248 	 -116 	43.19 	 -8.82 	 5.565 	
965 	 -247 	 -114 	43.295 	 -8.645 	 6.72 	
967 	 -249 	 -122 	43.085 	 -8.54 	 7.665 	
973 	 -263 	 -121 	43.12 	 -8.505 	 8.435 	
976 	 -279 	 -116 	43.12 	 -8.295 	 8.82 	
974 	 -286 	 -111 	43.295 	 -8.12 	 8.925 	
965 	 -279 	 -109 	43.505 	 -8.05 	 8.645 	
954 	 -269 	 -114 	43.505 	 -7.98 	 8.085 	
951 	 -262 	 -117 	43.4 	 -8.05 	 7.245 	
953 	 -259 	 -127 	43.295 	 -8.05 	 6.23 	
955 	 -265 	 -127 	43.12 	 -8.05 	 5.11 	
958 	 -275 	 -126 	42.945 	 -8.085 	 3.78 	
962 	 -280 	 -119 	42.98 	 -8.12 	 2.485 	
964 	 -279 	 -113 	42.91 	 -8.19 	 1.225 	
953 	 -274 	 -109 	42.805 	 -8.225 	 0.035 	
948 	 -269 	 -111 	42.595 	 -8.295 	 -1.015 	
944 	 -267 	 -109 	42.385 	 -8.575 	 -2.03 	
944 	 -260 	 -112 	42.21 	 -8.785 	 -2.835 	
943 	 -253 	 -113 	42.105 	 -9.03 	 -3.395 	
943 	 -251 	 -120 	41.72 	 -9.205 	 -3.885 	
942 	 -252 	 -123 	41.335 	 -9.38 	 -4.2 	
947 	 -254 	 -124 	41.09 	 -9.625 	 -4.445 	
951 	 -248 	 -122 	40.915 	 -9.87 	 -4.9 	
961 	 -244 	 -121 	40.53 	 -9.975 	 -5.565 	
970 	 -243 	 -114 	40.11 	 -10.15 	 -6.3 	
984 	 -241 	 -111 	39.69 	 -10.15 	 -7.175 	
993 	 -235 	 -108 	39.34 	 -10.255 	 -7.98 	
997 	 -237 	 -108 	38.955 	 -10.29 	 -8.82 	
1002 	 -238 	 -108 	38.57 	 -10.325 	 -9.45 	
1004 	 -239 	 -103 	38.22 	 -10.395 	 -9.905 	
1000 	 -228 	 -93 	37.835 	 -10.43 	 -10.325 	
990 	 -228 	 -87 	37.485 	 -10.675 	 -10.57 	
970 	 -222 	 -89 	37.065 	 -10.85 	 -10.64 	
949 	 -210 	 -91 	36.68 	 -11.305 	 -10.465 	
931 	 -204 	 -99 	36.225 	 -11.97 	 -9.835 	
916 	 -222 	 -104 	35.665 	 -12.635 	 -8.75 	
902 	 -241 	 -101 	35.28 	 -13.37 	 -7.385 	
890 	 -245 	 -97 	35.105 	 -14.21 	 -5.67 	
880 	 -250 	 -95 	34.93 	 -15.225 	 -3.85 	
883 	 -265 	 -94 	34.65 	 -16.38 	 -2.03 	
891 	 -280 	 -93 	34.44 	 -17.5 	 -0.7 	
900 	 -284 	 -91 	34.335 	 -18.445 	 -0.035 	
911 	 -290 	 -93 	34.16 	 -19.355 	 -0.035 	
928 	 -294 	 -92 	33.985 	 -20.195 	 -0.805 	
943 	 -295 	 -90 	33.845 	 -20.93 	 -2.24 	
956 	 -283 	 -87 	33.705 	 -21.525 	 -3.955 	
959 	 -267 	 -85 	33.425 	 -21.91 	 -5.705 	
958 	 -256 	 -89 	33.18 	 -22.645 	 -7.245 	
959 	 -243 	 -97 	32.97 	 -23.275 	 -8.365 	
957 	 -227 	 -101 	32.48 	 -23.835 	 -8.89 	
947 	 -221 	 -108 	32.025 	 -24.29 	 -8.75 	
938 	 -215 	 -112 	31.675 	 -24.885 	 -7.945 	
925 	 -204 	 -110 	31.22 	 -25.515 	 -6.51 	
915 	 -200 	 -108 	30.695 	 -26.285 	 -4.41 	
916 	 -215 	 -106 	30.03 	 -27.02 	 -1.68 	
914 	 -232 	 -104 	29.82 	 -27.825 	 1.33 	
908 	 -232 	 -106 	29.61 	 -28.7 	 4.305 	
917 	 -229 	 -112 	29.33 	 -29.575 	 6.86 	
932 	 -246 	 -119 	28.805 	 -30.24 	 8.89 	
943 	 -267 	 -116 	28.42 	 -30.8 	 10.08 	
950 	 -275 	 -113 	28.35 	 -31.22 	 10.5 	
957 	 -281 	 -115 	28.07 	 -31.605 	 10.15 	
967 	 -289 	 -120 	27.685 	 -31.885 	 9.31 	
969 	 -296 	 -122 	27.51 	 -32.06 	 8.015 	
968 	 -293 	 -132 	27.44 	 -32.165 	 6.37 	
977 	 -280 	 -136 	27.3 	 -32.305 	 4.585 	
991 	 -271 	 -141 	26.95 	 -32.305 	 2.8 	
992 	 -281 	 -148 	26.565 	 -32.025 	 1.19 	
979 	 -259 	 -152 	26.425 	 -31.85 	 -0.28 	
978 	 -243 	 -152 	26.11 	 -31.675 	 -0.945 	
973 	 -246 	 -157 	25.585 	 -31.675 	 -1.33 	
969 	 -244 	 -161 	25.41 	 -31.5 	 -0.84 	
959 	 -235 	 -169 	25.165 	 -31.29 	 0.175 	
953 	 -233 	 -172 	24.85 	 -31.255 	 1.68 	
958 	 -245 	 -171 	24.465 	 -31.185 	 3.465 	
962 	 -255 	 -169 	24.185 	 -30.975 	 5.18 	
966 	 -255 	 -168 	24.01 	 -30.73 	 6.615 	
976 	 -259 	 -163 	23.765 	 -30.485 	 7.595 	
984 	 -275 	 -160 	23.38 	 -30.1 	 8.26 	
986 	 -284 	 -160 	23.24 	 -29.715 	 8.365 	
989 	 -276 	 -166 	23.205 	 -29.295 	 8.085 	
998 	 -277 	 -165 	22.89 	 -28.875 	 7.49 	
1001 	 -288 	 -161 	22.54 	 -28.315 	 6.86 	
997 	 -288 	 -157 	22.435 	 -27.72 	 6.405 	
991 	 -276 	 -157 	22.26 	 -27.265 	 6.23 	
984 	 -264 	 -162 	21.91 	 -26.88 	 6.65 	
968 	 -265 	 -166 	21.56 	 -26.355 	 7.665 	
954 	 -271 	 -170 	21.105 	 -25.97 	 9.17 	
947 	 -271 	 -179 	20.86 	 -25.795 	 10.92 	
945 	 -272 	 -186 	20.545 	 -25.48 	 12.635 	
944 	 -274 	 -189 	20.265 	 -25.305 	 14.14 	
945 	 -277 	 -191 	19.88 	 -24.99 	 15.085 	
955 	 -283 	 -189 	19.46 	 -24.675 	 15.4 	
965 	 -294 	 -185 	18.97 	 -24.255 	 15.12 	
971 	 -300 	 -186 	18.69 	 -23.765 	 14.35 	
972 	 -299 	 -186 	18.235 	 -23.17 	 13.09 	
982 	 -295 	 -193 	17.815 	 -22.75 	 11.375 	
995 	 -292 	 -201 	17.325 	 -22.085 	 9.59 	
991 	 -289 	 -203 	16.835 	 -21.28 	 7.77 	
979 	 -279 	 -204 	16.31 	 -20.51 	 6.335 	
975 	 -269 	 -208 	15.855 	 -19.985 	 5.32 	
973 	 -269 	 -205 	15.19 	 -19.46 	 5.075 	
965 	 -275 	 -205 	14.56 	 -18.83 	 5.495 	
948 	 -276 	 -208 	14.105 	 -18.34 	 6.545 	
939 	 -270 	 -215 	13.685 	 -18.06 	 7.98 	
938 	 -269 	 -216 	13.125 	 -17.815 	 9.59 	
934 	 -275 	 -220 	12.565 	 -17.535 	 11.305 	
923 	 -286 	 -224 	12.075 	 -17.185 	 12.6 	
927 	 -291 	 -229 	11.55 	 -17.15 	 13.3 	
938 	 -300 	 -228 	10.99 	 -16.8 	 13.335 	
944 	 -313 	 -223 	10.535 	 -16.415 	 12.495 	
944 	 -320 	 -223 	10.08 	 -15.96 	 10.85 	
947 	 -322 	 -225 	9.695 	 -15.645 	 8.68 	
954 	 -322 	 -229 	9.38 	 -15.295 	 6.16 	
962 	 -322 	 -228 	8.855 	 -14.665 	 3.64 	
959 	 -319 	 -223 	8.575 	 -14.21 	 1.4 	
955 	 -309 	 -221 	8.19 	 -13.72 	 -0.21 	
950 	 -304 	 -220 	7.77 	 -13.3 	 -0.98 	
948 	 -297 	 -219 	7.385 	 -12.915 	 -0.84 	
942 	 -293 	 -217 	7.14 	 -12.6 	 0.28 	
934 	 -288 	 -212 	6.895 	 -12.355 	 2.1 	
924 	 -285 	 -210 	6.58 	 -12.11 	 4.445 	
913 	 -289 	 -210 	6.23 	 -11.935 	 7.07 	
900 	 -299 	 -213 	5.95 	 -11.9 	 9.8 	
887 	 -312 	 -216 	5.705 	 -11.865 	 12.215 	
885 	 -322 	 -219 	5.495 	 -11.795 	 14 	
891 	 -334 	 -219 	5.355 	 -11.865 	 14.98 	
901 	 -347 	 -218 	5.18 	 -11.865 	 14.875 	
908 	 -357 	 -212 	5.145 	 -11.76 	 13.86 	
912 	 -362 	 -209 	5.075 	 -11.69 	 11.9 	
921 	 -363 	 -215 	4.935 	 -11.445 	 9.38 	
929 	 -358 	 -222 	4.83 	 -11.13 	 6.475 	
933 	 -350 	 -225 	4.795 	 -10.815 	 3.57 	
928 	 -344 	 -224 	4.62 	 -10.5 	 0.91 	
930 	 -334 	 -226 	4.41 	 -10.255 	 -1.295 	
933 	 -321 	 -227 	4.375 	 -9.975 	 -2.765 	
936 	 -313 	 -223 	4.165 	 -9.66 	 -3.395 	
927 	 -317 	 -220 	3.85 	 -9.38 	 -3.185 	
920 	 -316 	 -219 	3.78 	 -9.31 	 -2.31 	
915 	 -311 	 -220 	3.605 	 -9.1 	 -0.805 	
908 	 -306 	 -219 	3.465 	 -8.995 	 1.12 	
904 	 -318 	 -218 	3.255 	 -8.89 	 3.29 	
902 	 -328 	 -217 	3.22 	 -8.855 	 5.25 	
904 	 -331 	 -217 	3.15 	 -8.855 	 6.965 	
911 	 -334 	 -217 	3.045 	 -8.785 	 8.295 	
920 	 -342 	 -216 	2.94 	 -8.785 	 8.96 	
925 	 -351 	 -218 	2.905 	 -8.61 	 8.89 	
929 	 -353 	 -222 	2.94 	 -8.435 	 8.225 	
931 	 -349 	 -223 	2.905 	 -8.225 	 7.07 	
937 	 -350 	 -224 	2.835 	 -7.98 	 5.53 	
939 	 -352 	 -227 	2.695 	 -7.56 	 3.675 	
936 	 -351 	 -228 	2.625 	 -7.245 	 1.75 	
936 	 -344 	 -225 	2.485 	 -6.895 	 -0.035 	
935 	 -335 	 -224 	2.52 	 -6.79 	 -1.54 	
933 	 -332 	 -226 	2.345 	 -6.405 	 -2.765 	
934 	 -330 	 -228 	2.205 	 -6.09 	 -3.465 	
935 	 -325 	 -227 	2.1 	 -5.775 	 -3.64 	
929 	 -323 	 -223 	2.1 	 -5.565 	 -3.255 	
923 	 -318 	 -221 	1.995 	 -5.32 	 -2.52 	
922 	 -321 	 -219 	1.89 	 -5.18 	 -1.365 	
925 	 -330 	 -215 	1.855 	 -5.005 	 0 	
921 	 -337 	 -214 	1.855 	 -4.83 	 1.365 	
915 	 -338 	 -217 	1.995 	 -4.62 	 2.59 	
910 	 -334 	 -219 	1.995 	 -4.55 	 3.5 	
919 	 -337 	 -220 	1.925 	 -4.41 	 4.165 	
926 	 -347 	 -221 	2.03 	 -4.2 	 4.48 	
930 	 -350 	 -222 	1.995 	 -3.815 	 4.515 	
929 	 -350 	 -224 	1.995 	 -3.57 	 4.235 	
932 	 -346 	 -230 	1.96 	 -3.325 	 3.78 	
935 	 -346 	 -235 	1.995 	 -3.01 	 3.08 	
934 	 -347 	 -234 	1.96 	 -2.66 	 2.31 	
934 	 -346 	 -235 	1.925 	 -2.38 	 1.435 	
940 	 -347 	 -238 	1.89 	 -2.03 	 0.56 	
946 	 -345 	 -239 	1.785 	 -1.68 	 -0.21 	
946 	 -343 	 -240 	1.82 	 -1.26 	 -0.91 	
937 	 -336 	 -239 	1.75 	 -0.84 	 -1.435 	
933 	 -333 	 -239 	1.61 	 -0.455 	 -1.715 	
935 	 -336 	 -241 	1.505 	 -0.28 	 -1.75 	
931 	 -343 	 -241 	1.365 	 0.175 	 -1.54 	
924 	 -344 	 -237 	1.435 	 0.525 	 -1.26 	
922 	 -341 	 -240 	1.4 	 0.665 	 -0.98 	
928 	 -342 	 -235 	1.19 	 0.91 	 -0.735 	
931 	 -342 	 -238 	1.225 	 1.19 	 -0.735 	
934 	 -339 	 -246 	1.085 	 1.61 	 -0.84 	
938 	 -335 	 -246 	0.98 	 1.96 	 -1.12 	
948 	 -335 	 -242 	0.77 	 2.345 	 -1.4 	
950 	 -332 	 -241 	0.595 	 2.73 	 -1.645 	
941 	 -324 	 -242 	0.42 	 3.185 	 -1.715 	
938 	 -315 	 -252 	0.21 	 3.465 	 -1.54 	
934 	 -312 	 -259 	-0.07 	 3.815 	 -1.19 	
937 	 -315 	 -258 	-0.315 	 4.165 	 -0.665 	
932 	 -318 	 -249 	-0.49 	 4.48 	 -0.14 	
937 	 -324 	 -238 	-0.805 	 4.69 	 0.21 	
946 	 -328 	 -237 	-1.015 	 4.9 	 0.455 	
949 	 -327 	 -234 	-1.225 	 5.355 	 0.49 	
949 	 -327 	 -230 	-1.365 	 5.565 	 0.42 	
948 	 -328 	 -225 	-1.575 	 5.74 	 0.175 	
947 	 -330 	 -226 	-1.785 	 6.02 	 -0.07 	
938 	 -331 	 -228 	-1.925 	 6.3 	 -0.455 	
929 	 -330 	 -223 	-2.065 	 6.405 	 -0.805 	
923 	 -333 	 -219 	-2.31 	 6.44 	 -1.155 	
925 	 -330 	 -218 	-2.38 	 6.475 	 -1.61 	
923 	 -327 	 -219 	-2.45 	 6.615 	 -1.925 	
919 	 -331 	 -213 	-2.59 	 6.65 	 -2.135 	
920 	 -332 	 -205 	-2.73 	 6.545 	 -2.24 	
921 	 -330 	 -204 	-2.8 	 6.475 	 -2.17 	
917 	 -329 	 -204 	-2.8 	 6.44 	 -2.03 	
913 	 -335 	 -203 	-2.905 	 6.405 	 -1.715 	
912 	 -338 	 -202 	-2.835 	 6.125 	 -1.295 	
910 	 -336 	 -202 	-2.835 	 5.95 	 -0.84 	
905 	 -333 	 -203 	-2.835 	 5.81 	 -0.28 	
899 	 -333 	 -204 	-2.87 	 5.6 	 0.245 	
899 	 -335 	 -204 	-2.765 	 5.285 	 0.735 	
894 	 -337 	 -205 	-2.73 	 4.97 	 1.12 	
892 	 -335 	 -205 	-2.625 	 4.585 	 1.365 	
886 	 -337 	 -204 	-2.59 	 4.235 	 1.47 	
885 	 -346 	 -196 	-2.485 	 3.815 	 1.47 	
891 	 -358 	 -197 	-2.415 	 3.535 	 1.26 	
888 	 -366 	 -202 	-2.065 	 3.115 	 0.91 	
892 	 -368 	 -198 	-1.925 	 2.765 	 0.245 	
900 	 -375 	 -189 	-1.645 	 2.415 	 -0.525 	
897 	 -373 	 -183 	-1.33 	 2.1 	 -1.4 	
893 	 -371 	 -182 	-0.91 	 1.68 	 -2.24 	
900 	 -372 	 -183 	-0.7 	 1.33 	 -2.905 	
902 	 -372 	 -183 	-0.42 	 0.945 	 -3.395 	
900 	 -359 	 -183 	0.105 	 0.63 	 -3.605 	
897 	 -343 	 -185 	0.35 	 0.28 	 -3.57 	
902 	 -340 	 -184 	0.455 	 -0.105 	 -3.045 	
903 	 -345 	 -183 	0.735 	 -0.56 	 -2.24 	
894 	 -340 	 -185 	1.12 	 -0.805 	 -1.19 	
884 	 -337 	 -190 	1.295 	 -1.26 	 0.07 	
885 	 -338 	 -192 	1.295 	 -1.68 	 1.225 	
890 	 -347 	 -194 	1.54 	 -2.135 	 2.17 	
891 	 -347 	 -196 	1.855 	 -2.52 	 2.66 	
893 	 -343 	 -199 	2.1 	 -2.8 	 2.73 	
903 	 -347 	 -200 	2.135 	 -3.115 	 2.38 	
914 	 -356 	 -203 	2.205 	 -3.5 	 1.575 	
914 	 -354 	 -204 	2.485 	 -3.64 	 0.455 	
915 	 -349 	 -204 	2.695 	 -3.885 	 -0.84 	
924 	 -353 	 -201 	2.765 	 -4.025 	 -1.995 	
925 	 -355 	 -199 	2.8 	 -4.13 	 -2.94 	
922 	 -352 	 -197 	3.08 	 -4.34 	 -3.605 	
924 	 -339 	 -200 	3.15 	 -4.515 	 -3.815 	
929 	 -330 	 -200 	3.115 	 -4.655 	 -3.465 	
930 	 -329 	 -200 	3.15 	 -4.795 	 -2.73 	
929 	 -326 	 -199 	3.22 	 -4.9 	 -1.54 	
930 	 -317 	 -201 	3.185 	 -5.075 	 -0.035 	
933 	 -311 	 -207 	2.94 	 -5.075 	 1.575 	
931 	 -314 	 -209 	2.765 	 -5.145 	 3.255 	
925 	 -318 	 -210 	2.625 	 -5.25 	 4.725 	
931 	 -319 	 -213 	2.555 	 -5.285 	 5.74 	
934 	 -321 	 -215 	2.31 	 -5.25 	 6.405 	
930 	 -328 	 -220 	2.03 	 -5.11 	 6.545 	
922 	 -336 	 -220 	1.89 	 -5.04 	 6.23 	
923 	 -342 	 -221 	1.82 	 -5.04 	 5.355 	
925 	 -346 	 -223 	1.54 	 -4.9 	 4.025 	
924 	 -349 	 -220 	1.26 	 -4.69 	 2.415 	
919 	 -354 	 -215 	1.05 	 -4.48 	 0.63 	
924 	 -352 	 -216 	0.945 	 -4.41 	 -1.05 	
933 	 -344 	 -217 	0.7 	 -4.27 	 -2.485 	
953 	 -335 	 -222 	0.455 	 -3.99 	 -3.465 	
950 	 -325 	 -214 	0.28 	 -3.535 	 -3.92 	
945 	 -318 	 -214 	-0.035 	 -3.29 	 -3.71 	
957 	 -306 	 -216 	-0.49 	 -2.975 	 -2.94 	
954 	 -305 	 -214 	-0.84 	 -2.59 	 -1.575 	
939 	 -305 	 -211 	-1.155 	 -2.275 	 0.21 	
929 	 -305 	 -215 	-1.47 	 -2.1 	 2.17 	
935 	 -304 	 -220 	-1.785 	 -2.065 	 3.955 	
936 	 -309 	 -221 	-2.205 	 -1.75 	 5.425 	
927 	 -321 	 -220 	-2.695 	 -1.4 	 6.37 	
927 	 -326 	 -219 	-2.94 	 -1.225 	 6.65 	
937 	 -331 	 -218 	-3.185 	 -1.015 	 6.23 	
945 	 -337 	 -215 	-3.57 	 -0.595 	 5.25 	
946 	 -345 	 -212 	-3.78 	 -0.175 	 3.85 	
943 	 -346 	 -209 	-3.99 	 0.175 	 2.135 	
943 	 -339 	 -210 	-4.13 	 0.42 	 0.385 	
941 	 -336 	 -208 	-4.515 	 0.805 	 -1.225 	
933 	 -340 	 -210 	-4.865 	 1.225 	 -2.485 	
925 	 -336 	 -210 	-5.075 	 1.505 	 -3.29 	
922 	 -327 	 -207 	-5.25 	 1.68 	 -3.605 	
926 	 -324 	 -206 	-5.46 	 1.995 	 -3.465 	
921 	 -331 	 -204 	-5.705 	 2.135 	 -2.87 	
923 	 -333 	 -203 	-5.95 	 2.275 	 -2.065 	
925 	 -326 	 -203 	-6.09 	 2.38 	 -1.225 	
928 	 -322 	 -206 	-6.265 	 2.59 	 -0.315 	
928 	 -327 	 -204 	-6.475 	 2.73 	 0.385 	
929 	 -335 	 -206 	-6.615 	 2.87 	 0.84 	
934 	 -336 	 -206 	-6.72 	 3.045 	 1.015 	
934 	 -338 	 -208 	-6.93 	 3.395 	 0.91 	
931 	 -342 	 -208 	-7.07 	 3.57 	 0.63 	
928 	 -344 	 -208 	-7.175 	 3.815 	 0.245 	
936 	 -342 	 -207 	-7.175 	 3.85 	 -0.315 	
940 	 -347 	 -206 	-7.21 	 4.025 	 -0.84 	
934 	 -349 	 -204 	-7.21 	 4.445 	 -1.435 	
928 	 -354 	 -204 	-7.28 	 4.655 	 -1.96 	
930 	 -355 	 -203 	-7.21 	 4.69 	 -2.38 	
926 	 -351 	 -204 	-7.07 	 4.795 	 -2.695 	
919 	 -345 	 -209 	-7.07 	 4.97 	 -2.87 	
916 	 -339 	 -214 	-7.07 	 5.11 	 -2.94 	
923 	 -338 	 -215 	-7.07 	 5.145 	 -2.87 	
932 	 -337 	 -217 	-6.965 	 5.215 	 -2.73 	
935 	 -334 	 -215 	-6.79 	 5.425 	 -2.52 	
934 	 -333 	 -211 	-6.79 	 5.565 	 -2.275 	
935 	 -337 	 -211 	-6.72 	 5.67 	 -1.96 	
933 	 -346 	 -207 	-6.615 	 5.775 	 -1.68 	
928 	 -349 	 -204 	-6.475 	 5.985 	 -1.435 	
919 	 -351 	 -204 	-6.3 	 6.16 	 -1.19 	
909 	 -351 	 -204 	-5.985 	 6.09 	 -0.98 	
911 	 -352 	 -203 	-5.74 	 6.055 	 -0.91 	
913 	 -359 	 -200 	-5.67 	 6.09 	 -0.98 	
915 	 -368 	 -195 	-5.46 	 6.195 	 -1.225 	
917 	 -365 	 -195 	-5.285 	 6.23 	 -1.68 	
919 	 -356 	 -199 	-4.9 	 6.16 	 -2.24 	
921 	 -347 	 -203 	-4.725 	 6.23 	 -2.975 	
924 	 -342 	 -204 	-4.62 	 6.265 	 -3.885 	
926 	 -336 	 -210 	-4.585 	 6.405 	 -4.795 	
931 	 -333 	 -211 	-4.585 	 6.685 	 -5.565 	
933 	 -325 	 -209 	-4.55 	 6.685 	 -6.23 	
935 	 -324 	 -202 	-4.69 	 6.895 	 -6.685 	
940 	 -323 	 -197 	-4.655 	 7.105 	 -6.755 	
941 	 -320 	 -192 	-4.725 	 7.28 	 -6.545 	
937 	 -314 	 -193 	-4.69 	 7.385 	 -5.915 	
934 	 -309 	 -193 	-4.83 	 7.525 	 -4.83 	
930 	 -305 	 -197 	-5.005 	 7.63 	 -3.5 	
930 	 -309 	 -196 	-5.18 	 7.665 	 -1.96 	
931 	 -315 	 -196 	-5.25 	 7.735 	 -0.385 	
929 	 -314 	 -197 	-5.46 	 7.805 	 0.98 	
926 	 -311 	 -201 	-5.6 	 7.84 	 1.925 	
927 	 -306 	 -204 	-5.88 	 7.98 	 2.45 	
931 	 -315 	 -206 	-6.265 	 7.945 	 2.485 	
931 	 -324 	 -206 	-6.58 	 8.05 	 1.96 	
931 	 -322 	 -204 	-6.86 	 8.155 	 0.98 	
933 	 -313 	 -205 	-7.14 	 8.225 	 -0.35 	
937 	 -313 	 -205 	-7.735 	 8.4 	 -1.855 	
937 	 -315 	 -206 	-8.19 	 8.54 	 -3.43 	
935 	 -311 	 -204 	-8.715 	 8.89 	 -4.83 	
941 	 -299 	 -203 	-9.135 	 9.03 	 -5.95 	
943 	 -286 	 -202 	-9.8 	 9.17 	 -6.51 	
937 	 -270 	 -205 	-10.43 	 9.345 	 -6.405 	
936 	 -273 	 -213 	-11.2 	 9.52 	 -5.705 	
942 	 -271 	 -211 	-11.865 	 9.625 	 -4.48 	
946 	 -261 	 -212 	-12.565 	 9.8 	 -3.01 	
950 	 -262 	 -211 	-13.265 	 10.01 	 -1.47 	
954 	 -262 	 -209 	-14 	 10.255 	 -0.14 	
957 	 -271 	 -205 	-14.875 	 10.395 	 0.84 	
961 	 -281 	 -205 	-15.645 	 10.64 	 1.47 	
960 	 -294 	 -200 	-16.345 	 10.92 	 1.645 	
958 	 -306 	 -191 	-16.87 	 11.165 	 1.47 	
958 	 -311 	 -188 	-17.36 	 11.375 	 0.945 	
959 	 -317 	 -189 	-17.85 	 11.62 	 0.21 	
951 	 -316 	 -176 	-18.305 	 11.9 	 -0.7 	
947 	 -328 	 -176 	-18.655 	 12.04 	 -1.575 	
950 	 -333 	 -177 	-19.075 	 12.11 	 -2.485 	
952 	 -337 	 -175 	-19.355 	 12.32 	 -3.15 	
943 	 -325 	 -175 	-19.495 	 12.635 	 -3.71 	
930 	 -316 	 -176 	-19.6 	 12.81 	 -4.13 	
937 	 -318 	 -183 	-19.95 	 12.775 	 -4.445 	
944 	 -322 	 -184 	-20.125 	 12.95 	 -4.725 	
946 	 -315 	 -180 	-20.195 	 13.3 	 -5.075 	
943 	 -308 	 -176 	-20.3 	 13.51 	 -5.355 	
951 	 -312 	 -170 	-20.44 	 13.65 	 -5.635 	
956 	 -311 	 -171 	-20.545 	 13.895 	 -5.845 	
953 	 -306 	 -169 	-20.51 	 14.245 	 -5.81 	
947 	 -296 	 -172 	-20.545 	 14.455 	 -5.6 	
949 	 -298 	 -172 	-20.545 	 14.49 	 -5.075 	
948 	 -306 	 -172 	-20.51 	 14.77 	 -4.34 	
939 	 -312 	 -169 	-20.405 	 15.015 	 -3.395 	
932 	 -317 	 -167 	-20.3 	 15.05 	 -2.415 	
928 	 -322 	 -166 	-20.125 	 14.98 	 -1.435 	
928 	 -328 	 -163 	-19.845 	 14.98 	 -0.56 	
931 	 -334 	 -162 	-19.635 	 15.015 	 0 	
932 	 -335 	 -161 	-19.285 	 14.98 	 0.21 	
934 	 -339 	 -160 	-19.005 	 14.875 	 0.14 	
934 	 -336 	 -162 	-18.76 	 14.84 	 -0.28 	
931 	 -337 	 -163 	-18.48 	 14.91 	 -1.015 	
936 	 -339 	 -164 	-18.165 	 14.84 	 -1.925 	
940 	 -335 	 -162 	-17.85 	 14.77 	 -3.01 	
941 	 -334 	 -158 	-17.535 	 14.805 	 -4.095 	
938 	 -322 	 -158 	-17.255 	 14.805 	 -5.075 	
938 	 -317 	 -156 	-17.01 	 14.7 	 -5.775 	
939 	 -315 	 -156 	-16.66 	 14.525 	 -6.125 	
934 	 -312 	 -157 	-16.45 	 14.49 	 -6.055 	
924 	 -304 	 -162 	-16.24 	 14.385 	 -5.635 	
923 	 -300 	 -162 	-16.03 	 14.21 	 -4.865 	
925 	 -300 	 -163 	-15.855 	 13.965 	 -3.955 	
926 	 -301 	 -158 	-15.575 	 13.825 	 -3.01 	
923 	 -302 	 -152 	-15.365 	 13.58 	 -2.135 	
926 	 -300 	 -154 	-15.19 	 13.265 	 -1.435 	
928 	 -304 	 -155 	-15.05 	 12.95 	 -0.91 	
929 	 -307 	 -155 	-14.84 	 12.67 	 -0.525 	
922 	 -314 	 -153 	-14.56 	 12.495 	 -0.315 	
919 	 -311 	 -152 	-14.42 	 12.11 	 -0.42 	
917 	 -303 	 -155 	-14.245 	 11.69 	 -0.525 	
916 	 -307 	 -153 	-14.175 	 11.27 	 -0.77 	
918 	 -312 	 -149 	-14.14 	 11.025 	 -0.91 	
920 	 -314 	 -151 	-13.895 	 10.5 	 -0.945 	
927 	 -308 	 -148 	-13.72 	 10.08 	 -1.05 	
932 	 -300 	 -143 	-13.615 	 9.52 	 -0.98 	
930 	 -295 	 -144 	-13.615 	 9.135 	 -0.875 	
933 	 -289 	 -149 	-13.65 	 8.68 	 -0.735 	
938 	 -286 	 -154 	-13.755 	 8.19 	 -0.595 	
941 	 -276 	 -157 	-13.79 	 7.735 	 -0.315 	
932 	 -273 	 -159 	-13.895 	 7.455 	 0.035 	
923 	 -272 	 -157 	-14.175 	 7.035 	 0.28 	
934 	 -276 	 -156 	-14.28 	 6.335 	 0.49 	
932 	 -264 	 -152 	-14.35 	 5.95 	 0.665 	
923 	 -275 	 -152 	-14.63 	 5.46 	 0.735 	
925 	 -290 	 -157 	-14.98 	 4.9 	 0.7 	
940 	 -298 	 -149 	-15.015 	 4.34 	 0.63 	
948 	 -285 	 -145 	-14.98 	 4.025 	 0.35 	
940 	 -273 	 -145 	-15.33 	 3.78 	 0.14 	
934 	 -283 	 -144 	-15.75 	 3.29 	 0 	
943 	 -292 	 -146 	-16.03 	 2.765 	 -0.105 	
949 	 -280 	 -157 	-15.995 	 2.38 	 0.035 	
939 	 -266 	 -158 	-16.31 	 2.135 	 0.42 	
938 	 -266 	 -156 	-16.8 	 1.715 	 1.225 	
946 	 -274 	 -153 	-17.01 	 1.155 	 2.345 	
953 	 -272 	 -156 	-17.29 	 0.91 	 3.605 	
943 	 -269 	 -154 	-17.64 	 0.595 	 5.075 	
937 	 -280 	 -152 	-18.025 	 0.21 	 6.44 	
948 	 -272 	 -161 	-18.165 	 -0.21 	 7.595 	
946 	 -272 	 -162 	-18.375 	 -0.49 	 8.435 	
933 	 -265 	 -160 	-18.655 	 -0.77 	 8.82 	
933 	 -275 	 -162 	-19.215 	 -1.05 	 8.785 	
948 	 -286 	 -162 	-19.53 	 -1.365 	 8.155 	
959 	 -298 	 -162 	-19.705 	 -1.435 	 7.21 	
953 	 -308 	 -153 	-20.02 	 -1.225 	 6.09 	
946 	 -315 	 -149 	-20.125 	 -1.365 	 4.76 	
954 	 -305 	 -151 	-20.125 	 -1.54 	 3.255 	
960 	 -302 	 -151 	-20.335 	 -1.47 	 1.855 	
958 	 -309 	 -150 	-20.615 	 -1.33 	 0.56 	
958 	 -314 	 -148 	-20.58 	 -1.26 	 -0.77 	
964 	 -307 	 -145 	-20.58 	 -1.19 	 -1.855 	
966 	 -298 	 -145 	-20.58 	 -1.05 	 -2.835 	
964 	 -290 	 -144 	-20.755 	 -0.805 	 -3.5 	
959 	 -287 	 -148 	-20.79 	 -0.7 	 -3.71 	
960 	 -281 	 -152 	-20.825 	 -0.56 	 -3.465 	
955 	 -277 	 -154 	-20.895 	 -0.42 	 -2.695 	
945 	 -277 	 -152 	-20.93 	 -0.21 	 -1.54 	
941 	 -278 	 -153 	-20.86 	 -0.175 	 -0.21 	
938 	 -280 	 -158 	-20.86 	 -0.14 	 1.155 	
936 	 -287 	 -159 	-20.895 	 0 	 2.31 	
936 	 -296 	 -160 	-20.825 	 0.28 	 3.22 	
935 	 -305 	 -165 	-20.615 	 0.315 	 3.815 	
939 	 -306 	 -165 	-20.44 	 0.455 	 3.85 	
940 	 -305 	 -167 	-20.335 	 0.735 	 3.395 	
942 	 -307 	 -167 	-20.265 	 1.015 	 2.66 	
945 	 -310 	 -165 	-20.195 	 1.33 	 1.715 	
954 	 -322 	 -163 	-20.02 	 1.575 	 0.7 	
968 	 -329 	 -163 	-19.88 	 1.925 	 -0.35 	
977 	 -323 	 -159 	-19.635 	 2.52 	 -1.295 	
978 	 -312 	 -154 	-19.495 	 2.94 	 -2.03 	
978 	 -305 	 -152 	-19.39 	 3.325 	 -2.52 	
980 	 -300 	 -155 	-19.32 	 3.745 	 -2.625 	
976 	 -297 	 -158 	-19.355 	 4.27 	 -2.415 	
967 	 -293 	 -157 	-19.18 	 4.655 	 -1.995 	
955 	 -285 	 -159 	-19.18 	 5.075 	 -1.4 	
946 	 -288 	 -162 	-19.145 	 5.285 	 -0.735 	
947 	 -293 	 -165 	-19.145 	 5.495 	 -0.21 	
945 	 -294 	 -166 	-19.04 	 5.705 	 -0.07 	
942 	 -302 	 -168 	-19.04 	 6.02 	 -0.21 	
945 	 -311 	 -169 	-18.9 	 6.16 	 -0.805 	
955 	 -317 	 -160 	-18.83 	 6.335 	 -1.925 	
960 	 -322 	 -152 	-18.585 	 6.65 	 -3.465 	
960 	 -328 	 -148 	-18.34 	 7 	 -5.285 	
959 	 -327 	 -150 	-18.2 	 7.28 	 -7.385 	
966 	 -321 	 -152 	-18.13 	 7.49 	 -9.38 	
968 	 -317 	 -153 	-18.025 	 7.875 	 -11.06 	
955 	 -299 	 -148 	-17.71 	 8.19 	 -12.285 	
942 	 -267 	 -145 	-17.5 	 8.225 	 -12.845 	
940 	 -252 	 -152 	-17.605 	 8.225 	 -12.425 	
942 	 -253 	 -158 	-17.815 	 8.26 	 -11.095 	
937 	 -257 	 -158 	-17.85 	 8.26 	 -8.925 	
932 	 -245 	 -159 	-17.71 	 8.155 	 -6.37 	
936 	 -230 	 -164 	-17.78 	 8.015 	 -3.43 	
947 	 -232 	 -164 	-18.06 	 7.98 	 -0.7 	
953 	 -247 	 -162 	-18.235 	 7.98 	 1.715 	
958 	 -253 	 -164 	-18.13 	 7.91 	 3.57 	
969 	 -243 	 -165 	-18.13 	 7.945 	 4.655 	
971 	 -248 	 -164 	-18.48 	 8.225 	 5.215 	
970 	 -270 	 -160 	-18.725 	 8.26 	 5.215 	
975 	 -283 	 -156 	-18.655 	 8.4 	 4.655 	
977 	 -283 	 -159 	-18.515 	 8.54 	 3.605 	
974 	 -291 	 -162 	-18.585 	 8.82 	 2.24 	
973 	 -297 	 -162 	-18.55 	 9.1 	 0.63 	
972 	 -298 	 -161 	-18.41 	 9.345 	 -1.155 	
976 	 -290 	 -161 	-18.235 	 9.52 	 -2.73 	
976 	 -290 	 -159 	-18.34 	 9.87 	 -4.165 	
975 	 -290 	 -159 	-18.235 	 10.115 	 -5.32 	
974 	 -281 	 -158 	-18.095 	 10.36 	 -6.16 	
974 	 -274 	 -159 	-17.885 	 10.57 	 -6.685 	
976 	 -274 	 -157 	-17.78 	 10.745 	 -6.65 	
968 	 -274 	 -157 	-17.64 	 10.99 	 -6.335 	
965 	 -273 	 -155 	-17.395 	 11.13 	 -5.775 	
964 	 -266 	 -154 	-17.08 	 11.2 	 -5.04 	
962 	 -269 	 -151 	-16.94 	 11.375 	 -4.27 	
955 	 -276 	 -151 	-16.695 	 11.48 	 -3.43 	
946 	 -272 	 -149 	-16.485 	 11.55 	 -2.695 	
944 	 -269 	 -151 	-16.03 	 11.41 	 -2.17 	
943 	 -274 	 -152 	-15.75 	 11.34 	 -1.82 	
948 	 -284 	 -150 	-15.4 	 11.305 	 -1.715 	
945 	 -285 	 -148 	-15.085 	 11.27 	 -1.89 	
947 	 -282 	 -147 	-14.665 	 11.165 	 -2.17 	
953 	 -282 	 -146 	-14.385 	 11.13 	 -2.625 	
954 	 -286 	 -144 	-14.035 	 11.06 	 -3.08 	
951 	 -285 	 -143 	-13.58 	 11.13 	 -3.43 	
950 	 -278 	 -141 	-13.195 	 10.955 	 -3.71 	
951 	 -271 	 -142 	-12.705 	 10.675 	 -3.745 	
953 	 -270 	 -141 	-12.6 	 10.71 	 -3.535 	
943 	 -268 	 -138 	-12.25 	 10.535 	 -3.22 	
940 	 -263 	 -138 	-11.865 	 10.36 	 -2.73 	
939 	 -261 	 -139 	-11.585 	 10.08 	 -2.065 	
938 	 -264 	 -142 	-11.34 	 9.87 	 -1.225 	
927 	 -270 	 -141 	-11.025 	 9.59 	 -0.21 	
922 	 -276 	 -140 	-10.675 	 9.31 	 0.77 	
924 	 -278 	 -140 	-10.29 	 8.82 	 1.575 	
922 	 -281 	 -142 	-10.08 	 8.61 	 2.135 	
918 	 -280 	 -143 	-9.625 	 8.225 	 2.45 	
921 	 -277 	 -142 	-9.45 	 7.945 	 2.345 	
937 	 -277 	 -142 	-9.135 	 7.42 	 1.89 	
940 	 -269 	 -142 	-8.925 	 7.21 	 1.155 	
946 	 -270 	 -141 	-8.855 	 7.035 	 0.315 	
948 	 -259 	 -139 	-8.645 	 6.755 	 -0.56 	
954 	 -247 	 -139 	-8.61 	 6.405 	 -1.19 	
954 	 -249 	 -136 	-8.61 	 6.195 	 -1.54 	
949 	 -242 	 -133 	-8.61 	 5.915 	 -1.54 	
951 	 -234 	 -129 	-8.68 	 5.565 	 -1.225 	
949 	 -230 	 -126 	-8.75 	 5.075 	 -0.49 	
944 	 -234 	 -123 	-8.82 	 4.725 	 0.56 	
939 	 -241 	 -121 	-9.065 	 4.305 	 1.645 	
940 	 -242 	 -121 	-9.065 	 3.745 	 2.59 	
942 	 -242 	 -118 	-9.17 	 3.255 	 3.395 	
938 	 -244 	 -112 	-9.31 	 2.695 	 3.815 	
937 	 -254 	 -117 	-9.52 	 2.17 	 3.885 	
945 	 -267 	 -118 	-9.695 	 1.47 	 3.465 	
952 	 -272 	 -116 	-9.765 	 1.155 	 2.625 	
947 	 -273 	 -115 	-9.8 	 0.84 	 1.505 	
945 	 -270 	 -112 	-9.87 	 0.315 	 0.105 	
948 	 -265 	 -112 	-9.975 	 -0.21 	 -1.225 	
954 	 -266 	 -114 	-10.15 	 -0.595 	 -2.31 	
957 	 -266 	 -117 	-10.115 	 -1.015 	 -3.185 	
959 	 -248 	 -121 	-10.185 	 -1.4 	 -3.64 	
957 	 -230 	 -120 	-10.36 	 -1.68 	 -3.605 	
956 	 -229 	 -122 	-10.71 	 -2.065 	 -3.08 	
961 	 -237 	 -126 	-10.955 	 -2.555 	 -2.24 	
970 	 -243 	 -129 	-11.06 	 -2.835 	 -1.12 	
968 	 -236 	 -128 	-11.27 	 -3.045 	 0.105 	
964 	 -233 	 -123 	-11.48 	 -3.325 	 1.365 	
965 	 -233 	 -123 	-11.83 	 -3.745 	 2.52 	
973 	 -238 	 -123 	-12.04 	 -4.13 	 3.395 	
972 	 -243 	 -123 	-12.285 	 -4.27 	 4.06 	
968 	 -245 	 -128 	-12.53 	 -4.515 	 4.445 	
969 	 -246 	 -133 	-12.845 	 -4.795 	 4.515 	
967 	 -246 	 -135 	-13.09 	 -5.075 	 4.2 	
963 	 -245 	 -134 	-13.37 	 -5.215 	 3.64 	
961 	 -245 	 -133 	-13.755 	 -5.425 	 2.975 	
964 	 -248 	 -133 	-14.07 	 -5.705 	 2.17 	
968 	 -251 	 -137 	-14.245 	 -5.95 	 1.575 	
966 	 -247 	 -139 	-14.455 	 -5.985 	 1.015 	
965 	 -247 	 -135 	-14.735 	 -6.16 	 0.7 	
968 	 -247 	 -136 	-14.945 	 -6.37 	 0.49 	
971 	 -241 	 -136 	-14.98 	 -6.51 	 0.385 	
969 	 -238 	 -138 	-15.19 	 -6.58 	 0.49 	
962 	 -241 	 -139 	-15.435 	 -6.615 	 0.7 	
963 	 -246 	 -138 	-15.54 	 -6.755 	 0.98 	
968 	 -247 	 -138 	-15.575 	 -6.72 	 1.4 	
966 	 -247 	 -134 	-15.54 	 -6.755 	 1.855 	
963 	 -251 	 -133 	-15.61 	 -6.72 	 2.345 	
957 	 -254 	 -140 	-15.68 	 -6.65 	 2.8 	
960 	 -252 	 -146 	-15.575 	 -6.685 	 3.15 	
964 	 -258 	 -148 	-15.505 	 -6.755 	 3.43 	
962 	 -270 	 -146 	-15.435 	 -6.475 	 3.605 	
