STEVAL-MKI197V1 (LSM6DSOX)

A_X [mg] 	 A_Y [mg] 	 A_Z [mg] 	G_X [dps] 	 G_Y [dps] 	 G_Z [dps] 	
49 	 -218 	 -993 	-13.545 	 -25.55 	 -12.53 	
38 	 -201 	 -1002 	-12.46 	 -26.46 	 -10.395 	
36 	 -218 	 -1009 	-11.585 	 -27.44 	 -8.015 	
50 	 -243 	 -1019 	-10.325 	 -28.385 	 -5.81 	
67 	 -260 	 -1037 	-8.54 	 -29.05 	 -4.305 	
94 	 -267 	 -1048 	-6.895 	 -29.225 	 -3.745 	
125 	 -287 	 -1052 	-5.145 	 -29.155 	 -4.375 	
151 	 -308 	 -1064 	-3.15 	 -28.91 	 -6.44 	
149 	 -302 	 -1081 	-1.085 	 -28.56 	 -9.73 	
142 	 -288 	 -1094 	1.015 	 -28.07 	 -13.895 	
136 	 -268 	 -1111 	3.115 	 -27.405 	 -18.27 	
112 	 -248 	 -1126 	5.285 	 -26.39 	 -22.085 	
81 	 -224 	 -1136 	7.595 	 -25.515 	 -25.025 	
68 	 -214 	 -1133 	9.765 	 -24.99 	 -26.705 	
68 	 -219 	 -1129 	11.795 	 -24.535 	 -26.95 	
70 	 -228 	 -1133 	14.14 	 -24.01 	 -25.655 	
61 	 -222 	 -1130 	16.73 	 -23.38 	 -22.855 	
30 	 -211 	 -1105 	19.32 	 -22.47 	 -18.13 	
21 	 -219 	 -1098 	21.735 	 -21.945 	 -12.285 	
15 	 -234 	 -1102 	24.01 	 -22.155 	 -5.355 	
67 	 -274 	 -1115 	26.425 	 -22.435 	 0.7 	
92 	 -271 	 -1121 	29.54 	 -21.28 	 5.95 	
53 	 -239 	 -1126 	31.99 	 -19.74 	 9.485 	
48 	 -261 	 -1122 	33.705 	 -19.32 	 11.585 	
91 	 -309 	 -1121 	35.525 	 -19.11 	 11.795 	
112 	 -321 	 -1123 	37.975 	 -17.78 	 10.29 	
63 	 -284 	 -1107 	40.285 	 -16.135 	 7.385 	
45 	 -284 	 -1084 	41.72 	 -15.295 	 3.745 	
65 	 -321 	 -1067 	42.84 	 -15.015 	 -0.35 	
82 	 -337 	 -1071 	44.555 	 -14.07 	 -5.005 	
65 	 -313 	 -1076 	46.235 	 -12.74 	 -9.59 	
50 	 -297 	 -1071 	47.005 	 -11.9 	 -14.245 	
69 	 -324 	 -1067 	47.495 	 -11.41 	 -18.55 	
61 	 -326 	 -1059 	48.44 	 -10.29 	 -22.855 	
10 	 -335 	 -1030 	49.14 	 -9.17 	 -26.705 	
-48 	 -365 	 -986 	49.315 	 -9.03 	 -29.96 	
-73 	 -488 	 -847 	50.295 	 -9.03 	 -30.905 	
-74 	 -345 	 -912 	51.695 	 -9.765 	 -35.035 	
-63 	 -354 	 -924 	51.415 	 -9.24 	 -34.615 	
-88 	 -341 	 -931 	50.505 	 -9.905 	 -38.08 	
17 	 -279 	 -903 	50.575 	 -10.08 	 -37.52 	
48 	 -327 	 -839 	50.225 	 -9.205 	 -37.205 	
-91 	 -325 	 -838 	51.205 	 -10.535 	 -42.035 	
26 	 -289 	 -844 	51.1 	 -12.67 	 -37.065 	
91 	 -234 	 -851 	50.295 	 -12.355 	 -31.885 	
84 	 -350 	 -825 	49.525 	 -10.22 	 -20.65 	
-29 	 -329 	 -825 	49.7 	 -12.04 	 -14.63 	
122 	 -367 	 -881 	49.945 	 -15.365 	 -3.955 	
225 	 -340 	 -944 	49.735 	 -15.575 	 5.425 	
113 	 -282 	 -945 	49.98 	 -13.23 	 15.715 	
-66 	 -118 	 -962 	49.77 	 -13.755 	 23.275 	
-101 	 100 	 -1033 	47.88 	 -16.765 	 28.595 	
-79 	 268 	 -1082 	44.765 	 -18.025 	 32.83 	
-152 	 327 	 -1056 	41.195 	 -17.605 	 36.085 	
-137 	 305 	 -1040 	37.03 	 -18.76 	 38.22 	
-17 	 114 	 -1017 	30.8 	 -20.51 	 39.27 	
100 	 -134 	 -1019 	26.04 	 -20.685 	 38.535 	
164 	 -263 	 -1025 	23.765 	 -19.215 	 36.05 	
218 	 -233 	 -1045 	21.63 	 -18.27 	 30.345 	
302 	 -188 	 -1071 	18.48 	 -17.745 	 22.12 	
368 	 -102 	 -1096 	15.295 	 -15.68 	 11.41 	
333 	 14 	 -1103 	11.62 	 -12.25 	 0.28 	
229 	 50 	 -1083 	6.615 	 -9.38 	 -8.68 	
156 	 15 	 -1058 	1.47 	 -8.12 	 -14.455 	
119 	 -12 	 -1035 	-2.485 	 -7.315 	 -15.89 	
78 	 42 	 -1012 	-5.67 	 -6.3 	 -12.915 	
40 	 92 	 -987 	-9.66 	 -5.81 	 -5.915 	
45 	 89 	 -986 	-14.175 	 -5.95 	 3.57 	
64 	 68 	 -1003 	-17.885 	 -5.705 	 14.315 	
67 	 63 	 -1014 	-21.105 	 -4.655 	 25.27 	
74 	 26 	 -1009 	-24.64 	 -3.92 	 35.35 	
111 	 -47 	 -1000 	-27.965 	 -3.43 	 43.505 	
166 	 -107 	 -991 	-30.17 	 -2.45 	 49.21 	
196 	 -153 	 -979 	-32.025 	 -0.77 	 52.43 	
195 	 -216 	 -965 	-33.81 	 1.12 	 52.885 	
204 	 -271 	 -945 	-35.525 	 2.695 	 50.925 	
228 	 -252 	 -934 	-35.84 	 4.515 	 47.985 	
177 	 -323 	 -930 	-36.295 	 6.58 	 41.615 	
159 	 -237 	 -930 	-36.82 	 8.085 	 36.225 	
173 	 -256 	 -937 	-37.38 	 9.87 	 32.2 	
144 	 -225 	 -945 	-37.275 	 11.69 	 28.945 	
114 	 -292 	 -902 	-37.94 	 13.755 	 29.085 	
60 	 -267 	 -900 	-36.26 	 14.14 	 26.04 	
94 	 -214 	 -925 	-35.14 	 14.175 	 26.95 	
105 	 -168 	 -936 	-34.72 	 15.33 	 27.37 	
66 	 -205 	 -928 	-35 	 17.15 	 28.49 	
29 	 -241 	 -935 	-33.705 	 18.06 	 28 	
61 	 -217 	 -951 	-31.605 	 17.85 	 26.425 	
110 	 -194 	 -975 	-30.345 	 18.55 	 24.605 	
96 	 -232 	 -971 	-29.645 	 20.16 	 21.315 	
89 	 -282 	 -949 	-27.895 	 21.175 	 17.57 	
117 	 -269 	 -941 	-25.41 	 21.49 	 12.95 	
131 	 -238 	 -948 	-23.485 	 22.26 	 8.435 	
113 	 -277 	 -933 	-22.015 	 23.52 	 5.005 	
74 	 -313 	 -917 	-19.705 	 24.325 	 1.89 	
62 	 -303 	 -910 	-16.765 	 24.395 	 -0.42 	
65 	 -289 	 -920 	-14.21 	 24.535 	 -1.995 	
63 	 -303 	 -922 	-11.935 	 24.885 	 -3.08 	
57 	 -312 	 -922 	-9.03 	 24.92 	 -4.165 	
52 	 -301 	 -918 	-6.09 	 24.885 	 -5.565 	
66 	 -266 	 -922 	-3.535 	 24.71 	 -7.315 	
68 	 -264 	 -928 	-1.19 	 24.675 	 -9.135 	
75 	 -278 	 -928 	1.4 	 24.745 	 -10.99 	
70 	 -251 	 -936 	4.095 	 24.535 	 -12.985 	
89 	 -256 	 -957 	6.3 	 24.395 	 -14.49 	
102 	 -305 	 -988 	8.645 	 24.535 	 -15.855 	
107 	 -277 	 -1015 	11.375 	 24.57 	 -17.43 	
150 	 -205 	 -1029 	14.14 	 24.5 	 -19.25 	
168 	 -152 	 -1027 	16.03 	 25.27 	 -21.245 	
136 	 -176 	 -1008 	17.29 	 26.285 	 -23.555 	
119 	 -225 	 -981 	18.9 	 26.46 	 -26.53 	
144 	 -241 	 -945 	20.475 	 25.935 	 -30.59 	
156 	 -282 	 -1020 	21.49 	 25.13 	 -37.1 	
324 	 6 	 -939 	24.22 	 25.795 	 -43.575 	
237 	 -112 	 -851 	24.36 	 28.245 	 -48.685 	
72 	 -242 	 -946 	22.925 	 28.525 	 -51.345 	
78 	 -261 	 -1004 	22.54 	 27.16 	 -50.155 	
92 	 -257 	 -977 	25.13 	 25.935 	 -47.46 	
75 	 -23 	 -978 	27.65 	 25.2 	 -44.205 	
12 	 1 	 -966 	25.48 	 24.99 	 -38.465 	
-9 	 -177 	 -928 	23.625 	 23.205 	 -32.025 	
42 	 -197 	 -904 	25.55 	 20.58 	 -26.005 	
81 	 -92 	 -921 	26.705 	 18.795 	 -19.18 	
74 	 -95 	 -935 	25.025 	 17.605 	 -11.41 	
46 	 -121 	 -907 	24.395 	 16.1 	 -3.71 	
25 	 11 	 -877 	25.76 	 14.035 	 3.71 	
19 	 82 	 -871 	25.235 	 11.865 	 12.635 	
36 	 -40 	 -875 	23.45 	 9.415 	 23.765 	
70 	 -143 	 -869 	23.87 	 6.79 	 36.12 	
90 	 -109 	 -860 	25.515 	 4.69 	 49.07 	
82 	 -93 	 -856 	25.41 	 3.115 	 62.23 	
67 	 -217 	 -866 	24.5 	 1.295 	 74.13 	
62 	 -301 	 -904 	25.55 	 -0.84 	 82.565 	
50 	 -288 	 -978 	27.335 	 -2.52 	 87.01 	
39 	 -325 	 -1021 	27.685 	 -3.71 	 87.325 	
37 	 -415 	 -1043 	27.86 	 -4.69 	 82.985 	
19 	 -454 	 -1019 	29.085 	 -5.18 	 74.06 	
15 	 -489 	 -984 	29.82 	 -6.44 	 61.11 	
155 	 -381 	 -996 	29.855 	 -8.12 	 46.025 	
249 	 -586 	 -931 	29.68 	 -7.63 	 31.045 	
111 	 -459 	 -949 	32.06 	 -7.63 	 7.63 	
158 	 -309 	 -926 	32.865 	 -7.35 	 -8.015 	
143 	 -267 	 -901 	29.785 	 -7.21 	 -23.975 	
129 	 -466 	 -891 	26.81 	 -7.595 	 -34.37 	
72 	 -471 	 -946 	26.67 	 -9.66 	 -43.925 	
84 	 -212 	 -1042 	28.42 	 -11.48 	 -47.215 	
14 	 -11 	 -1037 	28.385 	 -11.76 	 -45.185 	
-73 	 8 	 -1003 	24.465 	 -13.65 	 -38.29 	
-50 	 -184 	 -953 	20.475 	 -17.01 	 -27.405 	
11 	 -179 	 -929 	20.615 	 -19.915 	 -15.365 	
32 	 -61 	 -933 	20.055 	 -21.77 	 -2.135 	
14 	 -119 	 -929 	15.995 	 -23.835 	 10.395 	
65 	 -274 	 -923 	13.51 	 -26.565 	 20.58 	
120 	 -263 	 -948 	13.86 	 -28.35 	 26.775 	
109 	 -195 	 -967 	13.02 	 -28.91 	 29.925 	
109 	 -264 	 -955 	10.185 	 -29.855 	 30.38 	
153 	 -366 	 -945 	9.31 	 -31.045 	 28 	
176 	 -332 	 -953 	9.94 	 -31.115 	 23.1 	
154 	 -298 	 -947 	9.065 	 -30.8 	 17.465 	
146 	 -359 	 -919 	7.35 	 -31.01 	 11.62 	
159 	 -401 	 -906 	7.28 	 -31.255 	 5.635 	
158 	 -341 	 -919 	8.085 	 -30.975 	 0.07 	
135 	 -301 	 -935 	7.98 	 -30.52 	 -3.885 	
120 	 -334 	 -930 	7.525 	 -30.38 	 -6.16 	
115 	 -350 	 -923 	8.085 	 -30.415 	 -7.21 	
104 	 -314 	 -920 	9.1 	 -30.31 	 -7.14 	
84 	 -287 	 -908 	9.31 	 -30.275 	 -5.915 	
93 	 -322 	 -894 	9.17 	 -30.24 	 -3.675 	
108 	 -348 	 -911 	9.87 	 -30.24 	 -1.47 	
92 	 -326 	 -924 	10.955 	 -29.75 	 0.875 	
83 	 -309 	 -916 	11.41 	 -29.47 	 3.115 	
98 	 -341 	 -905 	11.445 	 -29.645 	 5.005 	
114 	 -353 	 -908 	12.32 	 -29.47 	 6.23 	
121 	 -331 	 -917 	13.37 	 -28.84 	 7.245 	
102 	 -326 	 -914 	13.65 	 -28.14 	 8.4 	
82 	 -362 	 -899 	13.65 	 -27.72 	 9.66 	
76 	 -375 	 -897 	14.28 	 -27.44 	 10.64 	
76 	 -352 	 -906 	15.225 	 -27.125 	 11.445 	
62 	 -337 	 -912 	15.645 	 -26.495 	 11.865 	
59 	 -362 	 -909 	15.715 	 -26.11 	 11.97 	
50 	 -374 	 -910 	16.17 	 -25.795 	 11.375 	
52 	 -363 	 -917 	16.8 	 -25.515 	 10.36 	
46 	 -356 	 -918 	17.185 	 -25.06 	 8.995 	
39 	 -361 	 -915 	17.36 	 -24.5 	 7.28 	
38 	 -365 	 -912 	17.465 	 -24.185 	 5.425 	
33 	 -369 	 -913 	17.64 	 -23.835 	 3.605 	
17 	 -360 	 -917 	17.675 	 -23.415 	 1.925 	
14 	 -348 	 -922 	17.745 	 -23.31 	 0.49 	
18 	 -340 	 -930 	17.57 	 -22.995 	 -0.7 	
19 	 -336 	 -934 	17.325 	 -22.575 	 -1.33 	
10 	 -332 	 -935 	17.29 	 -22.365 	 -1.505 	
10 	 -326 	 -937 	17.01 	 -22.085 	 -1.33 	
17 	 -325 	 -940 	16.695 	 -21.805 	 -0.805 	
11 	 -326 	 -936 	16.31 	 -21.385 	 -0.14 	
13 	 -329 	 -934 	16.135 	 -21.14 	 0.49 	
27 	 -328 	 -933 	16.03 	 -20.965 	 1.085 	
35 	 -336 	 -929 	15.715 	 -20.475 	 1.75 	
24 	 -350 	 -921 	15.47 	 -19.845 	 2.275 	
16 	 -355 	 -918 	15.47 	 -19.46 	 2.625 	
14 	 -357 	 -918 	15.47 	 -19.04 	 2.975 	
5 	 -358 	 -915 	15.4 	 -18.585 	 3.15 	
0 	 -366 	 -912 	15.4 	 -18.095 	 3.08 	
-2 	 -381 	 -908 	15.47 	 -17.745 	 2.87 	
-2 	 -383 	 -915 	15.75 	 -17.36 	 2.345 	
-1 	 -379 	 -921 	15.96 	 -17.08 	 1.505 	
-4 	 -379 	 -920 	16.1 	 -16.415 	 0.665 	
-12 	 -377 	 -915 	16.38 	 -15.925 	 -0.525 	
-2 	 -377 	 -911 	16.485 	 -15.61 	 -1.575 	
0 	 -382 	 -909 	16.52 	 -15.015 	 -2.275 	
-6 	 -395 	 -910 	16.555 	 -14.49 	 -2.87 	
-4 	 -387 	 -911 	16.8 	 -14.175 	 -3.255 	
0 	 -377 	 -911 	16.94 	 -13.685 	 -3.43 	
-6 	 -369 	 -911 	16.835 	 -12.915 	 -3.605 	
-10 	 -359 	 -910 	16.765 	 -12.46 	 -3.465 	
-13 	 -366 	 -903 	16.625 	 -11.97 	 -2.975 	
-17 	 -370 	 -904 	16.31 	 -11.585 	 -2.485 	
-17 	 -370 	 -905 	16.135 	 -11.235 	 -1.54 	
-22 	 -360 	 -906 	15.82 	 -10.71 	 -0.7 	
-30 	 -362 	 -909 	15.365 	 -10.255 	 0.07 	
-35 	 -368 	 -914 	14.945 	 -9.94 	 0.455 	
-38 	 -370 	 -917 	14.63 	 -9.66 	 0.525 	
-38 	 -371 	 -911 	14.28 	 -9.31 	 0.245 	
-38 	 -370 	 -905 	13.825 	 -8.925 	 -0.42 	
-25 	 -377 	 -900 	13.16 	 -8.505 	 -1.155 	
-14 	 -399 	 -891 	12.635 	 -8.015 	 -1.785 	
-23 	 -402 	 -885 	12.11 	 -7.35 	 -2.275 	
-28 	 -393 	 -881 	11.725 	 -7.035 	 -2.52 	
-28 	 -388 	 -886 	11.2 	 -6.79 	 -2.31 	
-28 	 -392 	 -888 	10.64 	 -6.335 	 -1.89 	
-35 	 -388 	 -886 	10.15 	 -5.88 	 -1.155 	
-44 	 -383 	 -878 	9.415 	 -5.6 	 -0.455 	
-45 	 -376 	 -876 	8.435 	 -5.32 	 0.28 	
-40 	 -383 	 -879 	7.35 	 -5.075 	 0.875 	
-48 	 -392 	 -881 	6.23 	 -4.9 	 1.33 	
-51 	 -390 	 -883 	5.075 	 -4.725 	 1.54 	
-54 	 -382 	 -887 	3.675 	 -4.55 	 1.575 	
-63 	 -375 	 -889 	2.31 	 -4.445 	 1.47 	
-73 	 -361 	 -886 	0.805 	 -4.27 	 1.12 	
-85 	 -341 	 -881 	-0.91 	 -4.235 	 0.7 	
-84 	 -339 	 -877 	-2.8 	 -4.445 	 0.595 	
-81 	 -352 	 -876 	-4.865 	 -4.585 	 0.91 	
-79 	 -357 	 -877 	-6.65 	 -4.76 	 1.505 	
-74 	 -352 	 -873 	-8.505 	 -4.83 	 2.45 	
-72 	 -350 	 -871 	-10.605 	 -4.83 	 3.465 	
-76 	 -364 	 -869 	-12.6 	 -4.795 	 4.34 	
-80 	 -367 	 -872 	-14.315 	 -4.83 	 4.585 	
-76 	 -364 	 -880 	-16.1 	 -4.9 	 4.305 	
-65 	 -364 	 -882 	-18.025 	 -4.865 	 3.36 	
-62 	 -372 	 -878 	-19.88 	 -4.655 	 1.68 	
-63 	 -374 	 -872 	-21.7 	 -4.375 	 -0.42 	
-56 	 -374 	 -870 	-23.45 	 -4.34 	 -2.66 	
-49 	 -358 	 -887 	-25.27 	 -4.165 	 -5.005 	
-40 	 -342 	 -897 	-27.09 	 -3.85 	 -6.79 	
-41 	 -320 	 -899 	-28.98 	 -3.57 	 -7.98 	
-43 	 -308 	 -906 	-30.905 	 -3.185 	 -8.225 	
-49 	 -298 	 -917 	-32.795 	 -2.905 	 -7.595 	
-56 	 -285 	 -918 	-34.72 	 -2.765 	 -6.195 	
-60 	 -281 	 -920 	-36.75 	 -2.73 	 -4.27 	
-66 	 -281 	 -928 	-38.815 	 -2.555 	 -2.275 	
-59 	 -289 	 -938 	-40.705 	 -2.38 	 -0.84 	
-52 	 -294 	 -943 	-42.525 	 -1.995 	 -0.245 	
-48 	 -299 	 -942 	-44.45 	 -1.75 	 -0.525 	
-43 	 -307 	 -942 	-46.34 	 -1.575 	 -1.68 	
-31 	 -308 	 -934 	-48.055 	 -1.26 	 -3.36 	
-14 	 -305 	 -935 	-49.7 	 -0.77 	 -5.53 	
-12 	 -327 	 -940 	-51.625 	 0.105 	 -7.63 	
-28 	 -333 	 -942 	-53.165 	 0.735 	 -9.73 	
-24 	 -305 	 -939 	-54.495 	 0.945 	 -11.9 	
-14 	 -267 	 -938 	-56.035 	 1.295 	 -13.93 	
-15 	 -269 	 -932 	-57.925 	 1.96 	 -15.155 	
-19 	 -281 	 -936 	-59.605 	 2.555 	 -15.68 	
-23 	 -272 	 -942 	-61.04 	 2.94 	 -15.505 	
-19 	 -254 	 -947 	-62.615 	 3.395 	 -14.735 	
-15 	 -244 	 -948 	-64.12 	 3.71 	 -13.685 	
-13 	 -231 	 -949 	-65.485 	 4.305 	 -12.53 	
-8 	 -207 	 -957 	-66.57 	 4.69 	 -11.305 	
-10 	 -196 	 -962 	-68.285 	 5.25 	 -9.765 	
-6 	 -221 	 -959 	-69.965 	 5.74 	 -7.63 	
-2 	 -232 	 -950 	-71.05 	 6.16 	 -5.67 	
0 	 -218 	 -952 	-71.855 	 6.615 	 -3.535 	
5 	 -226 	 -953 	-72.94 	 7.35 	 -1.015 	
-18 	 -228 	 -950 	-74.06 	 7.945 	 0.385 	
-10 	 -264 	 -943 	-74.76 	 8.365 	 2.135 	
-12 	 -224 	 -951 	-75.145 	 8.4 	 1.715 	
-2 	 -238 	 -955 	-75.95 	 9.03 	 1.82 	
-18 	 -231 	 -958 	-76.755 	 9.555 	 0.525 	
-15 	 -252 	 -956 	-77.595 	 9.975 	 -0.805 	
-13 	 -241 	 -962 	-78.19 	 9.975 	 -2.905 	
-4 	 -216 	 -972 	-78.68 	 10.185 	 -4.795 	
-6 	 -188 	 -975 	-79.38 	 10.535 	 -6.44 	
-29 	 -157 	 -979 	-80.08 	 10.675 	 -7.49 	
-44 	 -97 	 -988 	-80.92 	 10.605 	 -7.035 	
3 	 -217 	 -976 	-81.76 	 10.99 	 -3.325 	
-104 	 -64 	 -994 	-82.04 	 9.87 	 -6.335 	
-11 	 -160 	 -988 	-83.02 	 9.345 	 -0.77 	
-18 	 -117 	 -1014 	-83.125 	 9.31 	 0 	
-19 	 -160 	 -1004 	-83.09 	 9.835 	 2.625 	
-50 	 -99 	 -1014 	-83.125 	 9.24 	 3.22 	
-14 	 -142 	 -1007 	-83.44 	 8.82 	 5.985 	
-19 	 -156 	 -1008 	-82.915 	 8.855 	 7.385 	
-44 	 -117 	 -1055 	-82.355 	 8.82 	 8.575 	
-45 	 -135 	 -1052 	-82.11 	 8.855 	 9.94 	
-39 	 -162 	 -1002 	-81.655 	 8.645 	 11.06 	
-45 	 -149 	 -1015 	-80.22 	 8.26 	 11.06 	
-73 	 -70 	 -1019 	-79.415 	 8.19 	 9.17 	
-52 	 -121 	 -1006 	-79.135 	 8.12 	 8.54 	
-52 	 -127 	 -987 	-77.735 	 7.84 	 6.58 	
-32 	 -99 	 -986 	-76.195 	 7.7 	 4.83 	
-24 	 -86 	 -979 	-75.145 	 7.735 	 3.465 	
-23 	 -115 	 -968 	-74.13 	 7.805 	 2.45 	
-20 	 -134 	 -960 	-72.24 	 7.63 	 1.75 	
-9 	 -111 	 -962 	-69.86 	 7.525 	 1.015 	
15 	 -92 	 -969 	-67.83 	 7.595 	 0.84 	
31 	 -103 	 -960 	-65.975 	 7.77 	 1.085 	
34 	 -106 	 -953 	-63.525 	 8.225 	 1.68 	
27 	 -82 	 -946 	-60.865 	 8.575 	 2.485 	
19 	 -71 	 -944 	-58.73 	 8.645 	 3.605 	
25 	 -89 	 -947 	-56.455 	 8.82 	 5.11 	
16 	 -81 	 -955 	-53.655 	 9.135 	 6.37 	
-7 	 -59 	 -955 	-51.065 	 9.625 	 7.735 	
-14 	 -76 	 -958 	-49 	 9.8 	 9.03 	
-1 	 -94 	 -972 	-46.48 	 9.695 	 9.765 	
10 	 -78 	 -986 	-43.82 	 10.01 	 9.8 	
5 	 -53 	 -995 	-41.615 	 10.465 	 9.17 	
6 	 -46 	 -1003 	-39.725 	 10.64 	 8.05 	
13 	 -42 	 -1003 	-37.52 	 10.885 	 6.545 	
2 	 -15 	 -1002 	-35.21 	 11.27 	 5.18 	
-18 	 1 	 -982 	-33.495 	 11.655 	 4.2 	
-16 	 -6 	 -978 	-32.165 	 11.305 	 3.5 	
10 	 -29 	 -983 	-30.555 	 11.2 	 2.695 	
30 	 -25 	 -994 	-28.35 	 11.375 	 1.89 	
33 	 -1 	 -1003 	-26.67 	 11.62 	 0.735 	
52 	 -17 	 -1007 	-25.515 	 11.48 	 -0.455 	
65 	 -25 	 -1013 	-23.87 	 11.69 	 -1.785 	
59 	 -8 	 -1007 	-22.05 	 12.285 	 -3.115 	
52 	 12 	 -1002 	-20.72 	 12.46 	 -4.165 	
54 	 10 	 -999 	-19.81 	 12.46 	 -4.935 	
44 	 4 	 -1000 	-18.62 	 12.67 	 -5.425 	
21 	 20 	 -999 	-17.395 	 12.915 	 -5.81 	
18 	 35 	 -1004 	-16.485 	 12.81 	 -5.88 	
32 	 42 	 -1016 	-15.855 	 12.74 	 -5.74 	
39 	 62 	 -1029 	-14.875 	 12.915 	 -5.355 	
36 	 81 	 -1036 	-14.175 	 13.3 	 -4.445 	
35 	 71 	 -1040 	-13.965 	 13.405 	 -3.115 	
36 	 50 	 -1044 	-13.685 	 13.475 	 -1.54 	
33 	 48 	 -1042 	-12.95 	 13.65 	 0 	
26 	 64 	 -1046 	-12.32 	 13.755 	 1.295 	
24 	 68 	 -1047 	-12.215 	 13.755 	 2.275 	
29 	 54 	 -1039 	-12.005 	 13.86 	 2.765 	
28 	 53 	 -1026 	-11.55 	 13.825 	 2.625 	
30 	 50 	 -1025 	-11.34 	 13.65 	 1.925 	
43 	 31 	 -1031 	-11.375 	 13.545 	 0.56 	
59 	 24 	 -1043 	-11.095 	 13.545 	 -1.505 	
65 	 30 	 -1046 	-10.85 	 13.65 	 -4.235 	
71 	 32 	 -1039 	-10.78 	 13.65 	 -7.385 	
80 	 25 	 -1032 	-10.85 	 13.58 	 -10.78 	
87 	 30 	 -1027 	-10.85 	 13.44 	 -14.105 	
97 	 41 	 -1027 	-10.815 	 13.44 	 -17.115 	
96 	 38 	 -1025 	-10.92 	 13.44 	 -19.53 	
85 	 34 	 -1023 	-11.06 	 13.405 	 -21.245 	
73 	 48 	 -1018 	-11.2 	 13.16 	 -22.54 	
64 	 70 	 -1012 	-11.34 	 12.74 	 -23.31 	
57 	 81 	 -1009 	-11.795 	 12.46 	 -23.625 	
50 	 85 	 -1005 	-12.495 	 11.935 	 -23.59 	
55 	 70 	 -1004 	-12.985 	 11.34 	 -23.38 	
64 	 70 	 -1011 	-13.335 	 10.64 	 -23.065 	
84 	 89 	 -1022 	-13.965 	 10.01 	 -22.715 	
83 	 96 	 -1016 	-14.91 	 9.555 	 -22.12 	
71 	 104 	 -1004 	-15.715 	 9.03 	 -21.42 	
67 	 111 	 -1009 	-16.555 	 8.225 	 -20.195 	
63 	 107 	 -1016 	-17.71 	 7.7 	 -19.04 	
64 	 93 	 -1020 	-18.69 	 6.895 	 -17.57 	
60 	 92 	 -1012 	-19.425 	 6.09 	 -16.695 	
73 	 109 	 -1009 	-20.125 	 5.11 	 -16.24 	
78 	 119 	 -1002 	-21.28 	 4.445 	 -16.415 	
66 	 108 	 -983 	-22.365 	 3.92 	 -16.695 	
57 	 121 	 -957 	-23.065 	 3.15 	 -17.325 	
65 	 134 	 -953 	-23.87 	 2.17 	 -17.64 	
63 	 132 	 -947 	-25.095 	 1.575 	 -17.5 	
66 	 120 	 -950 	-25.97 	 0.665 	 -16.625 	
78 	 123 	 -957 	-26.565 	 -0.21 	 -15.155 	
77 	 130 	 -967 	-27.23 	 -0.84 	 -12.88 	
71 	 132 	 -972 	-28 	 -1.785 	 -9.905 	
74 	 135 	 -976 	-28.7 	 -2.73 	 -6.37 	
70 	 156 	 -986 	-29.155 	 -3.5 	 -2.555 	
69 	 158 	 -992 	-29.925 	 -4.235 	 1.505 	
69 	 145 	 -993 	-30.8 	 -5.075 	 5.355 	
70 	 133 	 -995 	-31.5 	 -5.81 	 8.645 	
74 	 137 	 -1001 	-31.92 	 -6.51 	 10.99 	
74 	 138 	 -1002 	-32.62 	 -7.035 	 12.39 	
72 	 126 	 -992 	-33.39 	 -7.63 	 12.74 	
82 	 107 	 -990 	-33.915 	 -8.155 	 12.005 	
82 	 109 	 -987 	-34.055 	 -8.54 	 10.36 	
86 	 102 	 -983 	-34.51 	 -8.89 	 8.085 	
92 	 89 	 -981 	-34.965 	 -9.03 	 5.355 	
95 	 88 	 -976 	-34.895 	 -9.345 	 2.45 	
94 	 99 	 -975 	-34.685 	 -9.485 	 -0.315 	
89 	 110 	 -972 	-34.65 	 -9.695 	 -2.45 	
80 	 108 	 -971 	-34.65 	 -9.94 	 -3.605 	
64 	 119 	 -962 	-34.335 	 -10.255 	 -3.78 	
57 	 132 	 -967 	-33.88 	 -10.71 	 -2.73 	
61 	 134 	 -976 	-33.53 	 -11.165 	 -0.84 	
50 	 127 	 -983 	-33.075 	 -11.515 	 1.61 	
44 	 133 	 -981 	-32.375 	 -11.935 	 4.06 	
50 	 140 	 -979 	-31.675 	 -12.425 	 6.405 	
57 	 137 	 -981 	-31.22 	 -12.705 	 8.365 	
59 	 123 	 -982 	-30.555 	 -12.915 	 9.87 	
55 	 124 	 -985 	-29.75 	 -13.02 	 10.745 	
53 	 128 	 -987 	-28.805 	 -13.335 	 11.235 	
54 	 125 	 -981 	-28.07 	 -13.335 	 11.27 	
50 	 121 	 -971 	-27.16 	 -13.37 	 11.06 	
51 	 111 	 -966 	-26.285 	 -13.405 	 10.465 	
64 	 111 	 -966 	-25.34 	 -13.475 	 9.625 	
76 	 112 	 -972 	-24.395 	 -13.125 	 8.365 	
68 	 118 	 -972 	-23.38 	 -12.845 	 6.825 	
61 	 123 	 -972 	-22.435 	 -12.565 	 5.145 	
64 	 135 	 -977 	-21.385 	 -12.53 	 3.5 	
61 	 143 	 -979 	-20.44 	 -12.285 	 2.275 	
48 	 142 	 -978 	-19.635 	 -11.9 	 1.4 	
44 	 146 	 -979 	-18.865 	 -11.655 	 0.63 	
43 	 145 	 -981 	-18.06 	 -11.585 	 -0.105 	
55 	 146 	 -987 	-17.185 	 -11.41 	 -0.98 	
58 	 153 	 -994 	-16.135 	 -11.13 	 -1.89 	
51 	 161 	 -990 	-15.4 	 -10.78 	 -2.555 	
50 	 167 	 -985 	-14.7 	 -10.535 	 -2.8 	
50 	 169 	 -988 	-13.93 	 -10.395 	 -2.485 	
39 	 187 	 -990 	-12.985 	 -10.36 	 -1.575 	
38 	 195 	 -995 	-12.39 	 -10.045 	 -0.105 	
45 	 187 	 -995 	-11.83 	 -9.835 	 1.645 	
46 	 189 	 -996 	-11.165 	 -9.59 	 3.36 	
43 	 193 	 -990 	-10.43 	 -9.31 	 4.83 	
47 	 195 	 -985 	-9.905 	 -9.17 	 5.775 	
55 	 182 	 -982 	-9.52 	 -8.785 	 6.09 	
60 	 177 	 -991 	-8.995 	 -8.365 	 5.635 	
65 	 177 	 -995 	-8.47 	 -7.875 	 4.585 	
66 	 181 	 -993 	-8.015 	 -7.385 	 3.08 	
64 	 183 	 -995 	-7.595 	 -6.825 	 1.435 	
57 	 188 	 -993 	-7.21 	 -6.265 	 0 	
43 	 194 	 -984 	-6.93 	 -5.74 	 -0.98 	
51 	 186 	 -983 	-6.65 	 -5.53 	 -1.61 	
61 	 180 	 -990 	-6.51 	 -5.005 	 -2.135 	
61 	 178 	 -994 	-6.335 	 -4.41 	 -2.555 	
58 	 185 	 -998 	-6.02 	 -3.99 	 -3.22 	
55 	 193 	 -995 	-5.95 	 -3.605 	 -4.095 	
52 	 199 	 -995 	-5.95 	 -3.36 	 -4.83 	
56 	 203 	 -997 	-6.02 	 -2.835 	 -5.355 	
42 	 207 	 -997 	-5.985 	 -2.345 	 -5.425 	
27 	 215 	 -991 	-6.02 	 -2.24 	 -4.935 	
18 	 228 	 -981 	-6.195 	 -2.205 	 -3.92 	
17 	 238 	 -969 	-6.335 	 -2.135 	 -2.45 	
21 	 238 	 -966 	-6.86 	 -1.995 	 -0.56 	
7 	 225 	 -971 	-7.315 	 -1.855 	 1.575 	
4 	 220 	 -976 	-7.49 	 -2.03 	 3.675 	
20 	 222 	 -986 	-7.805 	 -2.24 	 5.495 	
24 	 218 	 -995 	-8.225 	 -2.065 	 7.035 	
0 	 212 	 -992 	-8.505 	 -1.96 	 8.085 	
-8 	 217 	 -988 	-8.89 	 -2.135 	 8.645 	
0 	 216 	 -989 	-9.415 	 -2.31 	 8.82 	
-4 	 210 	 -991 	-10.15 	 -2.345 	 8.61 	
-7 	 209 	 -987 	-10.675 	 -2.31 	 7.945 	
-4 	 210 	 -986 	-11.2 	 -2.45 	 6.965 	
-1 	 209 	 -986 	-11.76 	 -2.695 	 5.635 	
6 	 214 	 -988 	-12.355 	 -2.8 	 4.095 	
8 	 220 	 -987 	-12.88 	 -2.8 	 2.695 	
-1 	 224 	 -984 	-13.475 	 -2.695 	 1.785 	
-3 	 230 	 -984 	-14 	 -2.835 	 1.33 	
-5 	 237 	 -980 	-14.49 	 -2.975 	 1.505 	
1 	 244 	 -974 	-14.84 	 -3.045 	 2.1 	
10 	 243 	 -974 	-15.33 	 -3.15 	 2.975 	
9 	 236 	 -977 	-15.715 	 -3.01 	 3.955 	
11 	 236 	 -975 	-15.96 	 -3.045 	 4.76 	
23 	 237 	 -974 	-16.1 	 -2.94 	 5.46 	
20 	 246 	 -964 	-16.17 	 -2.8 	 5.845 	
28 	 245 	 -955 	-16.415 	 -2.66 	 6.09 	
36 	 235 	 -954 	-16.625 	 -2.415 	 6.265 	
35 	 235 	 -957 	-16.73 	 -2.1 	 6.3 	
44 	 239 	 -960 	-16.695 	 -1.96 	 6.3 	
50 	 245 	 -964 	-16.695 	 -1.54 	 6.51 	
43 	 245 	 -964 	-16.695 	 -1.12 	 6.825 	
35 	 249 	 -962 	-16.59 	 -0.805 	 7.56 	
36 	 255 	 -960 	-16.555 	 -0.735 	 8.435 	
35 	 255 	 -964 	-16.485 	 -0.525 	 9.52 	
37 	 252 	 -963 	-16.345 	 -0.175 	 10.605 	
37 	 246 	 -963 	-16.205 	 0.14 	 11.55 	
30 	 241 	 -960 	-15.96 	 0.315 	 12.18 	
33 	 237 	 -961 	-15.61 	 0.455 	 12.53 	
41 	 232 	 -960 	-15.26 	 0.63 	 12.6 	
37 	 236 	 -959 	-14.875 	 1.05 	 12.39 	
38 	 235 	 -955 	-14.525 	 1.365 	 12.075 	
47 	 224 	 -956 	-14.14 	 1.645 	 11.865 	
54 	 224 	 -963 	-13.51 	 1.855 	 11.69 	
40 	 234 	 -958 	-12.845 	 2.345 	 11.55 	
39 	 239 	 -953 	-12.355 	 2.555 	 11.445 	
44 	 231 	 -953 	-11.83 	 2.66 	 11.27 	
43 	 233 	 -954 	-11.2 	 2.905 	 10.99 	
36 	 240 	 -953 	-10.745 	 3.325 	 10.605 	
37 	 243 	 -957 	-10.255 	 3.535 	 10.01 	
41 	 243 	 -965 	-9.66 	 3.64 	 9.38 	
39 	 248 	 -971 	-9.1 	 3.955 	 8.715 	
36 	 249 	 -970 	-8.61 	 4.095 	 8.05 	
39 	 245 	 -965 	-8.26 	 4.235 	 7.525 	
46 	 242 	 -963 	-7.77 	 4.515 	 7 	
50 	 238 	 -964 	-7.35 	 4.69 	 6.615 	
49 	 245 	 -967 	-6.825 	 4.9 	 6.23 	
51 	 244 	 -967 	-6.405 	 5.005 	 6.02 	
55 	 248 	 -970 	-5.985 	 5.215 	 5.985 	
51 	 251 	 -968 	-5.565 	 5.46 	 6.09 	
48 	 255 	 -968 	-5.11 	 5.565 	 6.3 	
50 	 260 	 -973 	-4.76 	 5.705 	 6.685 	
49 	 258 	 -973 	-4.305 	 5.95 	 7.175 	
37 	 263 	 -965 	-3.885 	 6.09 	 7.875 	
41 	 264 	 -964 	-3.57 	 6.055 	 8.68 	
41 	 257 	 -965 	-3.325 	 6.055 	 9.38 	
48 	 252 	 -970 	-3.08 	 6.195 	 9.765 	
52 	 252 	 -972 	-2.485 	 6.23 	 9.695 	
57 	 248 	 -974 	-2.24 	 6.335 	 9.24 	
62 	 241 	 -973 	-2.03 	 6.475 	 8.295 	
61 	 244 	 -971 	-1.645 	 6.475 	 6.965 	
63 	 247 	 -970 	-1.295 	 6.58 	 5.565 	
64 	 250 	 -970 	-0.875 	 6.51 	 4.165 	
57 	 248 	 -963 	-0.77 	 6.685 	 2.94 	
50 	 250 	 -959 	-0.56 	 6.755 	 2.065 	
54 	 253 	 -957 	-0.245 	 6.58 	 1.54 	
61 	 253 	 -960 	0.07 	 6.475 	 1.4 	
58 	 256 	 -959 	0.28 	 6.265 	 1.54 	
67 	 258 	 -955 	0.63 	 6.055 	 2.1 	
81 	 265 	 -955 	0.77 	 5.985 	 3.045 	
62 	 272 	 -954 	0.91 	 5.95 	 4.445 	
44 	 272 	 -953 	1.015 	 5.6 	 6.09 	
52 	 274 	 -959 	1.085 	 5.04 	 7.7 	
60 	 284 	 -967 	1.225 	 4.76 	 9.1 	
44 	 282 	 -965 	1.19 	 4.725 	 10.185 	
37 	 274 	 -955 	1.05 	 4.34 	 10.675 	
49 	 269 	 -960 	0.98 	 3.85 	 10.43 	
51 	 270 	 -961 	0.91 	 3.465 	 9.695 	
48 	 265 	 -963 	0.735 	 3.22 	 8.645 	
45 	 258 	 -961 	0.525 	 2.975 	 7.315 	
44 	 257 	 -959 	0.42 	 2.555 	 5.95 	
45 	 261 	 -960 	0.35 	 2.065 	 4.725 	
45 	 258 	 -960 	0.28 	 1.68 	 3.71 	
44 	 254 	 -959 	0.245 	 1.155 	 3.045 	
45 	 256 	 -959 	0.315 	 0.735 	 2.625 	
45 	 259 	 -953 	0.35 	 0.315 	 2.415 	
45 	 256 	 -951 	0.28 	 -0.105 	 2.345 	
53 	 253 	 -951 	0.42 	 -0.7 	 2.275 	
58 	 254 	 -953 	0.49 	 -1.05 	 2.275 	
56 	 256 	 -949 	0.63 	 -1.54 	 2.205 	
60 	 256 	 -948 	0.735 	 -2.03 	 2.205 	
63 	 254 	 -950 	0.98 	 -2.38 	 2.415 	
68 	 250 	 -951 	1.155 	 -2.73 	 2.695 	
67 	 254 	 -951 	1.47 	 -3.01 	 3.08 	
63 	 255 	 -947 	1.575 	 -3.185 	 3.465 	
65 	 256 	 -946 	1.82 	 -3.675 	 3.815 	
64 	 255 	 -948 	2.17 	 -3.955 	 4.06 	
61 	 253 	 -951 	2.345 	 -4.235 	 4.2 	
58 	 250 	 -952 	2.59 	 -4.515 	 4.2 	
58 	 246 	 -954 	2.94 	 -4.795 	 3.885 	
60 	 248 	 -958 	3.29 	 -5.11 	 3.325 	
61 	 245 	 -961 	3.57 	 -5.215 	 2.73 	
65 	 246 	 -960 	3.955 	 -5.32 	 2.03 	
58 	 250 	 -958 	4.375 	 -5.495 	 1.505 	
48 	 255 	 -958 	4.83 	 -5.81 	 1.4 	
47 	 260 	 -957 	5.18 	 -6.055 	 1.68 	
45 	 264 	 -954 	5.705 	 -6.405 	 2.66 	
40 	 270 	 -950 	6.125 	 -6.685 	 4.445 	
38 	 265 	 -948 	6.72 	 -7.035 	 6.895 	
44 	 263 	 -950 	7.35 	 -7.42 	 9.695 	
46 	 265 	 -949 	7.98 	 -7.7 	 12.81 	
50 	 258 	 -951 	8.645 	 -8.085 	 15.75 	
53 	 247 	 -959 	9.38 	 -8.505 	 18.375 	
58 	 243 	 -964 	10.325 	 -8.75 	 20.51 	
57 	 245 	 -968 	11.165 	 -8.855 	 22.015 	
54 	 243 	 -962 	12.18 	 -9.03 	 23.17 	
51 	 239 	 -947 	13.23 	 -9.17 	 24.08 	
62 	 231 	 -941 	14.28 	 -9.555 	 24.885 	
74 	 222 	 -943 	15.33 	 -9.625 	 25.76 	
76 	 219 	 -945 	16.52 	 -9.555 	 26.775 	
68 	 218 	 -945 	17.815 	 -9.625 	 28.035 	
68 	 214 	 -948 	19.355 	 -9.905 	 29.54 	
64 	 214 	 -948 	20.72 	 -9.695 	 31.29 	
60 	 200 	 -945 	22.19 	 -9.695 	 32.97 	
67 	 167 	 -944 	23.485 	 -9.695 	 34.195 	
70 	 148 	 -949 	24.92 	 -9.52 	 34.405 	
72 	 147 	 -953 	26.495 	 -9.45 	 32.97 	
96 	 138 	 -962 	28.035 	 -9.45 	 30.1 	
117 	 117 	 -983 	29.33 	 -8.96 	 25.9 	
106 	 119 	 -998 	30.66 	 -8.19 	 20.685 	
89 	 131 	 -992 	31.85 	 -7.63 	 15.05 	
92 	 147 	 -987 	33.005 	 -7.455 	 9.555 	
94 	 165 	 -996 	34.055 	 -7.07 	 4.69 	
74 	 175 	 -1003 	34.86 	 -6.44 	 1.225 	
50 	 183 	 -996 	35.455 	 -6.16 	 -0.875 	
34 	 198 	 -985 	36.155 	 -6.195 	 -1.61 	
24 	 211 	 -981 	36.68 	 -6.3 	 -1.365 	
14 	 212 	 -981 	37.1 	 -6.545 	 -0.525 	
15 	 200 	 -985 	37.31 	 -6.755 	 0.35 	
24 	 189 	 -993 	37.59 	 -7 	 0.875 	
33 	 192 	 -1008 	38.045 	 -7.21 	 0.805 	
36 	 190 	 -1012 	38.22 	 -7.35 	 0.245 	
46 	 183 	 -1014 	38.36 	 -7.63 	 -0.63 	
52 	 173 	 -1011 	38.5 	 -7.63 	 -1.61 	
54 	 169 	 -1010 	38.71 	 -7.63 	 -2.59 	
57 	 160 	 -1009 	38.745 	 -7.7 	 -3.605 	
69 	 140 	 -1017 	38.92 	 -7.77 	 -4.795 	
79 	 139 	 -1021 	39.235 	 -7.525 	 -6.195 	
81 	 147 	 -1013 	39.41 	 -7.14 	 -7.7 	
82 	 148 	 -1011 	39.55 	 -6.965 	 -8.82 	
92 	 147 	 -1018 	39.795 	 -6.86 	 -9.59 	
94 	 159 	 -1022 	40.04 	 -6.475 	 -9.485 	
68 	 174 	 -1010 	40.215 	 -6.02 	 -8.365 	
42 	 178 	 -991 	40.145 	 -5.74 	 -6.545 	
35 	 169 	 -979 	40.145 	 -5.74 	 -4.34 	
33 	 161 	 -977 	40.215 	 -5.705 	 -2.485 	
35 	 146 	 -976 	40.04 	 -5.46 	 -1.435 	
47 	 131 	 -984 	39.76 	 -5.285 	 -1.68 	
66 	 116 	 -999 	39.76 	 -5.075 	 -3.29 	
73 	 117 	 -1016 	39.865 	 -4.69 	 -5.95 	
73 	 128 	 -1018 	39.725 	 -4.165 	 -9.03 	
73 	 126 	 -1018 	39.445 	 -3.745 	 -11.935 	
67 	 129 	 -1018 	39.235 	 -3.29 	 -14.14 	
59 	 134 	 -1018 	39.025 	 -2.94 	 -15.295 	
50 	 140 	 -1015 	38.85 	 -2.765 	 -15.295 	
50 	 134 	 -1011 	38.5 	 -2.625 	 -14.28 	
52 	 131 	 -1014 	38.465 	 -2.45 	 -12.425 	
50 	 136 	 -1017 	38.57 	 -2.45 	 -10.115 	
48 	 137 	 -1021 	38.535 	 -2.38 	 -7.525 	
55 	 126 	 -1017 	38.57 	 -2.415 	 -4.725 	
68 	 119 	 -1010 	38.885 	 -2.415 	 -1.715 	
69 	 113 	 -1005 	39.235 	 -2.38 	 1.575 	
65 	 102 	 -1001 	39.48 	 -2.38 	 5.18 	
59 	 96 	 -990 	39.935 	 -2.38 	 8.96 	
46 	 91 	 -979 	40.635 	 -2.485 	 12.88 	
32 	 86 	 -965 	41.195 	 -2.555 	 16.38 	
19 	 65 	 -958 	41.615 	 -2.765 	 19.04 	
24 	 36 	 -958 	42.14 	 -3.08 	 20.16 	
31 	 18 	 -965 	42.805 	 -3.22 	 19.32 	
33 	 10 	 -973 	43.435 	 -3.255 	 16.31 	
41 	 2 	 -977 	43.785 	 -3.22 	 11.27 	
63 	 -18 	 -982 	44.135 	 -3.22 	 4.55 	
70 	 -21 	 -998 	44.625 	 -2.87 	 -3.045 	
64 	 -11 	 -1006 	44.975 	 -2.415 	 -10.815 	
62 	 -5 	 -1003 	45.15 	 -2.275 	 -17.955 	
59 	 6 	 -998 	45.325 	 -2.1 	 -23.94 	
57 	 29 	 -997 	45.605 	 -1.96 	 -27.965 	
46 	 41 	 -998 	45.5 	 -1.82 	 -29.82 	
35 	 40 	 -997 	45.57 	 -2.17 	 -29.435 	
28 	 52 	 -1002 	45.71 	 -2.52 	 -27.09 	
42 	 66 	 -1007 	45.885 	 -2.94 	 -22.96 	
33 	 72 	 -1007 	45.71 	 -3.255 	 -18.025 	
27 	 65 	 -1001 	45.535 	 -3.605 	 -12.145 	
29 	 57 	 -1003 	45.605 	 -4.375 	 -6.405 	
40 	 62 	 -1002 	45.71 	 -4.97 	 -0.84 	
37 	 60 	 -1001 	45.465 	 -5.32 	 4.13 	
36 	 30 	 -1002 	45.22 	 -5.81 	 8.295 	
40 	 8 	 -1001 	45.22 	 -6.335 	 10.955 	
40 	 7 	 -996 	45.395 	 -6.58 	 12.11 	
43 	 -5 	 -993 	45.115 	 -6.825 	 11.935 	
50 	 -34 	 -995 	44.87 	 -7.105 	 10.43 	
55 	 -51 	 -1002 	45.08 	 -7.245 	 7.805 	
52 	 -45 	 -1010 	45.255 	 -7.21 	 4.34 	
52 	 -51 	 -1007 	45.15 	 -7.105 	 0.525 	
57 	 -71 	 -1001 	45.115 	 -7.035 	 -3.325 	
64 	 -80 	 -995 	45.395 	 -7.105 	 -7.035 	
63 	 -78 	 -992 	45.64 	 -6.965 	 -10.36 	
56 	 -77 	 -996 	45.815 	 -6.965 	 -12.775 	
54 	 -78 	 -994 	45.885 	 -6.93 	 -14.385 	
47 	 -75 	 -992 	46.34 	 -6.93 	 -15.05 	
42 	 -65 	 -992 	46.515 	 -7 	 -14.84 	
36 	 -55 	 -986 	46.655 	 -7.175 	 -13.72 	
35 	 -60 	 -982 	46.655 	 -7.49 	 -11.55 	
32 	 -59 	 -983 	46.655 	 -7.77 	 -8.855 	
26 	 -56 	 -988 	46.795 	 -8.12 	 -5.6 	
20 	 -59 	 -993 	46.69 	 -8.47 	 -2.24 	
16 	 -62 	 -997 	46.55 	 -8.75 	 0.735 	
16 	 -68 	 -1001 	46.375 	 -9.135 	 3.185 	
18 	 -72 	 -1004 	46.235 	 -9.52 	 4.795 	
24 	 -80 	 -1001 	45.85 	 -9.87 	 5.39 	
18 	 -87 	 -999 	45.5 	 -10.15 	 5.04 	
21 	 -97 	 -1003 	45.15 	 -10.36 	 3.99 	
21 	 -107 	 -1007 	44.73 	 -10.78 	 2.38 	
21 	 -111 	 -1007 	44.24 	 -10.92 	 0.42 	
20 	 -113 	 -1003 	43.855 	 -11.06 	 -1.54 	
18 	 -118 	 -1001 	43.47 	 -11.305 	 -3.465 	
21 	 -126 	 -999 	43.19 	 -11.55 	 -5.04 	
20 	 -129 	 -997 	42.84 	 -11.655 	 -6.195 	
19 	 -128 	 -991 	42.455 	 -11.935 	 -6.93 	
16 	 -125 	 -982 	42.21 	 -12.145 	 -7.07 	
20 	 -103 	 -978 	41.755 	 -12.425 	 -5.74 	
10 	 -171 	 -972 	41.195 	 -12.74 	 -4.515 	
0 	 -154 	 -978 	41.475 	 -13.545 	 -3.99 	
19 	 -127 	 -976 	41.44 	 -13.79 	 -2.03 	
6 	 -131 	 -978 	40.565 	 -13.93 	 -0.945 	
-13 	 -133 	 -970 	39.935 	 -14.175 	 0.21 	
4 	 -181 	 -956 	39.69 	 -14.63 	 2.205 	
-7 	 -125 	 -977 	39.41 	 -15.365 	 2.415 	
-3 	 -156 	 -973 	38.64 	 -15.925 	 3.64 	
-3 	 -127 	 -978 	37.975 	 -16.205 	 4.375 	
-8 	 -142 	 -982 	37.275 	 -16.45 	 4.725 	
-18 	 -149 	 -990 	36.54 	 -16.94 	 4.095 	
-19 	 -142 	 -993 	35.875 	 -17.36 	 2.94 	
-5 	 -149 	 -988 	35.07 	 -17.605 	 1.68 	
-13 	 -162 	 -985 	34.055 	 -17.78 	 -0.91 	
-13 	 -177 	 -980 	33.215 	 -18.06 	 -3.64 	
-2 	 -173 	 -981 	32.41 	 -18.27 	 -6.79 	
-2 	 -173 	 -985 	31.71 	 -18.445 	 -10.045 	
-11 	 -182 	 -980 	30.905 	 -18.55 	 -12.95 	
-10 	 -187 	 -976 	30.38 	 -18.655 	 -15.33 	
-8 	 -172 	 -978 	29.82 	 -18.9 	 -17.15 	
-14 	 -166 	 -973 	28.665 	 -19.11 	 -18.27 	
-7 	 -188 	 -975 	28.105 	 -19.215 	 -17.955 	
-11 	 -175 	 -975 	27.79 	 -19.32 	 -17.325 	
-11 	 -152 	 -976 	27.195 	 -19.425 	 -15.715 	
-17 	 -147 	 -980 	26.04 	 -19.74 	 -13.685 	
-12 	 -165 	 -987 	25.235 	 -20.02 	 -11.235 	
-9 	 -161 	 -994 	24.85 	 -20.055 	 -8.925 	
-15 	 -162 	 -988 	23.94 	 -20.09 	 -7 	
-7 	 -159 	 -990 	23.205 	 -20.195 	 -5.39 	
15 	 -198 	 -977 	22.365 	 -20.09 	 -3.78 	
0 	 -181 	 -976 	22.015 	 -19.88 	 -3.955 	
-1 	 -179 	 -979 	21.28 	 -19.95 	 -3.85 	
11 	 -206 	 -976 	20.335 	 -19.705 	 -4.235 	
6 	 -208 	 -976 	20.055 	 -19.32 	 -5.425 	
0 	 -202 	 -976 	19.635 	 -18.935 	 -6.615 	
0 	 -209 	 -971 	18.9 	 -18.62 	 -8.015 	
7 	 -219 	 -972 	18.34 	 -18.445 	 -9.485 	
9 	 -215 	 -971 	18.13 	 -17.99 	 -10.64 	
-7 	 -208 	 -977 	17.78 	 -17.465 	 -11.69 	
-13 	 -203 	 -984 	17.36 	 -17.115 	 -12.215 	
-10 	 -207 	 -984 	16.975 	 -16.87 	 -12.53 	
-12 	 -204 	 -978 	16.8 	 -16.485 	 -12.495 	
-15 	 -209 	 -972 	16.555 	 -16.17 	 -11.97 	
-13 	 -220 	 -970 	16.275 	 -15.82 	 -11.2 	
-11 	 -227 	 -967 	16.205 	 -15.505 	 -10.15 	
-16 	 -223 	 -961 	16.31 	 -15.085 	 -8.925 	
-20 	 -230 	 -960 	16.205 	 -14.77 	 -7.7 	
-18 	 -241 	 -957 	16.205 	 -14.525 	 -6.405 	
-18 	 -244 	 -957 	16.485 	 -14.175 	 -5.32 	
-18 	 -243 	 -958 	16.625 	 -13.685 	 -4.375 	
-20 	 -252 	 -954 	16.765 	 -13.37 	 -3.64 	
-24 	 -260 	 -952 	16.905 	 -13.055 	 -3.15 	
-25 	 -261 	 -958 	17.22 	 -12.705 	 -3.045 	
-30 	 -259 	 -957 	17.64 	 -12.25 	 -3.08 	
-36 	 -261 	 -949 	17.885 	 -11.865 	 -3.325 	
-33 	 -273 	 -942 	18.025 	 -11.62 	 -3.5 	
-31 	 -282 	 -939 	18.235 	 -11.27 	 -3.85 	
-32 	 -287 	 -941 	18.62 	 -10.955 	 -4.13 	
-37 	 -283 	 -942 	19.215 	 -10.605 	 -4.305 	
-42 	 -281 	 -940 	19.635 	 -10.255 	 -4.34 	
-37 	 -284 	 -936 	20.02 	 -10.01 	 -4.13 	
-32 	 -293 	 -934 	20.37 	 -9.765 	 -3.745 	
-33 	 -288 	 -934 	20.755 	 -9.45 	 -2.905 	
-35 	 -283 	 -932 	21.105 	 -9.17 	 -1.75 	
-36 	 -283 	 -933 	21.385 	 -8.995 	 -0.455 	
-38 	 -280 	 -941 	21.595 	 -8.68 	 1.26 	
-41 	 -275 	 -946 	21.875 	 -8.505 	 2.94 	
-50 	 -271 	 -952 	22.155 	 -8.26 	 4.62 	
-56 	 -267 	 -958 	22.33 	 -8.05 	 6.265 	
-57 	 -266 	 -958 	22.225 	 -7.805 	 7.42 	
-53 	 -269 	 -958 	22.33 	 -7.735 	 8.015 	
-50 	 -275 	 -958 	22.155 	 -7.525 	 7.875 	
-46 	 -279 	 -960 	22.12 	 -7.175 	 7.245 	
-47 	 -285 	 -959 	22.12 	 -6.895 	 6.16 	
-48 	 -287 	 -960 	22.05 	 -6.335 	 4.795 	
-52 	 -287 	 -956 	22.12 	 -6.16 	 3.395 	
-55 	 -288 	 -953 	22.085 	 -5.915 	 2.205 	
-55 	 -286 	 -952 	22.015 	 -5.6 	 1.26 	
-56 	 -284 	 -955 	22.015 	 -5.355 	 0.77 	
-59 	 -280 	 -958 	22.085 	 -5.18 	 0.7 	
-58 	 -280 	 -960 	22.05 	 -4.83 	 1.05 	
-53 	 -286 	 -961 	22.015 	 -4.725 	 1.715 	
-55 	 -286 	 -961 	21.98 	 -4.445 	 2.625 	
-54 	 -284 	 -963 	22.015 	 -4.235 	 3.64 	
-50 	 -280 	 -965 	21.84 	 -4.095 	 4.795 	
-51 	 -285 	 -965 	21.665 	 -3.85 	 6.055 	
-58 	 -282 	 -963 	21.49 	 -3.64 	 7.035 	
-55 	 -285 	 -967 	21.315 	 -3.5 	 8.4 	
-60 	 -292 	 -966 	21.035 	 -3.36 	 9.205 	
-66 	 -299 	 -966 	20.86 	 -3.22 	 9.45 	
-74 	 -273 	 -968 	20.545 	 -3.29 	 8.75 	
-64 	 -312 	 -966 	19.915 	 -3.08 	 8.19 	
-70 	 -253 	 -974 	19.565 	 -2.8 	 6.72 	
-65 	 -326 	 -959 	18.725 	 -2.205 	 6.405 	
-90 	 -329 	 -961 	18.725 	 -2.485 	 3.115 	
-72 	 -319 	 -963 	19.04 	 -2.975 	 0.875 	
-61 	 -317 	 -960 	18.725 	 -2.73 	 -1.54 	
-66 	 -200 	 -971 	17.675 	 -1.925 	 -2.1 	
-81 	 -433 	 -929 	16.38 	 -1.645 	 -2.94 	
-98 	 -269 	 -964 	17.5 	 -2.765 	 -5.635 	
-42 	 -271 	 -945 	16.695 	 -2.66 	 -3.43 	
-95 	 -366 	 -945 	15.47 	 -2.59 	 -4.305 	
-89 	 -331 	 -940 	16.1 	 -2.87 	 -3.15 	
-71 	 -254 	 -948 	16.1 	 -3.045 	 -1.68 	
-70 	 -297 	 -948 	14.35 	 -2.975 	 0.315 	
-94 	 -355 	 -926 	13.545 	 -3.22 	 1.89 	
-110 	 -286 	 -939 	14.07 	 -3.92 	 3.255 	
-79 	 -269 	 -962 	13.475 	 -4.41 	 5.285 	
-86 	 -315 	 -954 	12.215 	 -4.27 	 6.335 	
-112 	 -331 	 -943 	11.935 	 -4.34 	 6.125 	
-98 	 -320 	 -935 	11.9 	 -5.005 	 4.935 	
-72 	 -319 	 -938 	11.095 	 -5.355 	 2.87 	
-69 	 -357 	 -931 	10.01 	 -5.39 	 0.035 	
-78 	 -371 	 -925 	9.905 	 -5.425 	 -2.975 	
-78 	 -345 	 -920 	9.975 	 -5.53 	 -5.915 	
-74 	 -336 	 -922 	9.345 	 -5.845 	 -8.225 	
-76 	 -346 	 -918 	8.645 	 -5.88 	 -9.555 	
-76 	 -333 	 -920 	8.505 	 -6.09 	 -9.66 	
-73 	 -317 	 -920 	7.98 	 -6.44 	 -8.995 	
-75 	 -315 	 -922 	7.105 	 -6.615 	 -7.665 	
-65 	 -315 	 -928 	6.72 	 -6.93 	 -5.46 	
-69 	 -305 	 -934 	6.16 	 -7.28 	 -3.43 	
-75 	 -287 	 -945 	5.53 	 -7.56 	 -1.54 	
-69 	 -293 	 -947 	4.62 	 -7.735 	 0.315 	
-76 	 -304 	 -946 	3.745 	 -7.875 	 1.26 	
-77 	 -306 	 -948 	3.22 	 -8.155 	 1.4 	
-67 	 -316 	 -945 	2.59 	 -8.365 	 0.735 	
-58 	 -331 	 -937 	1.82 	 -8.435 	 -0.805 	
-52 	 -341 	 -931 	1.26 	 -8.365 	 -2.66 	
-63 	 -341 	 -923 	0.805 	 -8.33 	 -4.725 	
-66 	 -339 	 -923 	0.49 	 -8.435 	 -6.335 	
-68 	 -345 	 -919 	0.105 	 -8.365 	 -7.28 	
-76 	 -337 	 -920 	-0.105 	 -8.33 	 -7.525 	
-77 	 -338 	 -917 	-0.315 	 -8.435 	 -6.93 	
-73 	 -335 	 -918 	-0.385 	 -8.61 	 -5.985 	
-68 	 -329 	 -921 	-0.525 	 -8.715 	 -4.55 	
-70 	 -332 	 -923 	-0.735 	 -8.75 	 -2.94 	
-73 	 -325 	 -930 	-0.77 	 -8.855 	 -1.47 	
-73 	 -315 	 -935 	-0.7 	 -8.96 	 0.035 	
-76 	 -317 	 -941 	-0.84 	 -8.96 	 0.98 	
-73 	 -325 	 -943 	-0.98 	 -8.96 	 1.54 	
-64 	 -337 	 -940 	-1.015 	 -8.995 	 1.4 	
-59 	 -339 	 -934 	-1.05 	 -8.89 	 0.84 	
-58 	 -338 	 -936 	-0.98 	 -8.82 	 0 	
-60 	 -343 	 -935 	-1.015 	 -8.505 	 -0.84 	
-65 	 -343 	 -935 	-0.875 	 -8.435 	 -1.61 	
-67 	 -343 	 -933 	-0.805 	 -8.19 	 -2.135 	
-68 	 -345 	 -933 	-0.56 	 -8.015 	 -2.59 	
-69 	 -341 	 -930 	-0.385 	 -7.945 	 -2.8 	
-70 	 -345 	 -933 	-0.245 	 -7.805 	 -2.835 	
-73 	 -347 	 -932 	0.07 	 -7.56 	 -3.01 	
-77 	 -342 	 -932 	0.49 	 -7.455 	 -3.22 	
-70 	 -340 	 -928 	0.525 	 -7.315 	 -3.325 	
-67 	 -351 	 -930 	0.77 	 -7.21 	 -3.36 	
-67 	 -350 	 -929 	1.12 	 -7.07 	 -3.29 	
-78 	 -325 	 -937 	1.54 	 -6.895 	 -3.29 	
-73 	 -335 	 -939 	1.54 	 -6.65 	 -2.59 	
-79 	 -337 	 -938 	1.82 	 -6.65 	 -2.345 	
-76 	 -335 	 -938 	2.135 	 -6.37 	 -1.4 	
-80 	 -332 	 -936 	2.38 	 -6.335 	 -1.12 	
-70 	 -339 	 -936 	2.485 	 -6.265 	 -0.49 	
-72 	 -351 	 -934 	2.485 	 -6.125 	 -0.245 	
-77 	 -338 	 -941 	2.87 	 -5.985 	 -0.14 	
-68 	 -345 	 -936 	2.835 	 -5.74 	 0.525 	
-79 	 -342 	 -937 	2.94 	 -5.67 	 0.245 	
-81 	 -335 	 -939 	3.08 	 -5.495 	 0.63 	
-79 	 -340 	 -945 	3.045 	 -5.215 	 1.155 	
-93 	 -330 	 -953 	3.185 	 -5.145 	 0.77 	
-88 	 -336 	 -953 	3.325 	 -5.145 	 0.875 	
-81 	 -345 	 -947 	3.29 	 -4.9 	 0.28 	
-82 	 -352 	 -943 	3.36 	 -4.795 	 -0.77 	
-79 	 -357 	 -938 	3.43 	 -4.655 	 -1.89 	
-74 	 -356 	 -937 	3.57 	 -4.375 	 -3.01 	
-79 	 -355 	 -938 	3.745 	 -4.13 	 -3.885 	
-86 	 -355 	 -936 	3.99 	 -3.955 	 -4.445 	
-83 	 -353 	 -935 	4.2 	 -3.815 	 -4.375 	
-81 	 -348 	 -935 	4.34 	 -3.64 	 -3.92 	
-82 	 -348 	 -934 	4.655 	 -3.535 	 -3.045 	
-77 	 -353 	 -930 	4.795 	 -3.325 	 -1.82 	
-74 	 -349 	 -933 	5.04 	 -3.22 	 -0.7 	
-71 	 -347 	 -935 	5.075 	 -3.185 	 0.525 	
-75 	 -345 	 -937 	5.285 	 -3.01 	 1.645 	
-79 	 -343 	 -940 	5.425 	 -2.87 	 2.59 	
-85 	 -342 	 -945 	5.565 	 -2.66 	 3.29 	
-87 	 -343 	 -945 	5.705 	 -2.59 	 3.43 	
-81 	 -352 	 -940 	5.845 	 -2.52 	 3.15 	
-76 	 -364 	 -932 	5.95 	 -2.345 	 2.38 	
-78 	 -371 	 -931 	6.055 	 -2.17 	 1.365 	
-78 	 -374 	 -928 	6.405 	 -1.995 	 0.245 	
-84 	 -375 	 -929 	6.72 	 -1.855 	 -0.875 	
-86 	 -376 	 -928 	7.14 	 -1.61 	 -1.75 	
-88 	 -375 	 -921 	7.525 	 -1.435 	 -2.345 	
-89 	 -375 	 -918 	7.84 	 -1.47 	 -2.765 	
-87 	 -376 	 -917 	8.12 	 -1.365 	 -2.87 	
-86 	 -371 	 -920 	8.575 	 -1.365 	 -2.73 	
-94 	 -363 	 -923 	8.785 	 -1.225 	 -2.345 	
-91 	 -361 	 -926 	9.03 	 -1.225 	 -1.785 	
-91 	 -360 	 -926 	9.345 	 -1.33 	 -1.05 	
-90 	 -358 	 -928 	9.52 	 -1.26 	 -0.385 	
-92 	 -352 	 -930 	9.555 	 -1.19 	 0.21 	
-86 	 -353 	 -932 	9.625 	 -1.26 	 0.63 	
-83 	 -353 	 -937 	9.66 	 -1.295 	 0.84 	
-84 	 -350 	 -938 	9.66 	 -1.295 	 0.875 	
-83 	 -351 	 -938 	9.485 	 -1.225 	 0.805 	
-86 	 -352 	 -934 	9.31 	 -1.225 	 0.56 	
-89 	 -354 	 -936 	9.1 	 -1.26 	 0.21 	
-87 	 -355 	 -936 	8.925 	 -1.4 	 -0.315 	
-88 	 -354 	 -935 	8.68 	 -1.435 	 -0.91 	
-88 	 -355 	 -931 	8.47 	 -1.435 	 -1.575 	
-87 	 -358 	 -925 	8.19 	 -1.365 	 -2.345 	
-84 	 -363 	 -919 	7.945 	 -1.575 	 -3.115 	
-81 	 -362 	 -916 	7.665 	 -1.54 	 -3.745 	
-81 	 -361 	 -911 	7.35 	 -1.575 	 -4.13 	
-81 	 -360 	 -912 	7.07 	 -1.68 	 -4.305 	
-77 	 -361 	 -914 	6.72 	 -1.715 	 -4.025 	
-76 	 -357 	 -913 	6.335 	 -1.75 	 -3.36 	
-79 	 -349 	 -915 	6.02 	 -1.925 	 -2.345 	
-81 	 -345 	 -915 	5.67 	 -1.96 	 -1.19 	
-83 	 -342 	 -922 	5.11 	 -2.135 	 0.07 	
-81 	 -339 	 -926 	4.585 	 -2.17 	 1.225 	
-88 	 -334 	 -929 	4.06 	 -2.135 	 2.205 	
-91 	 -338 	 -928 	3.43 	 -2.345 	 2.765 	
-86 	 -346 	 -927 	2.835 	 -2.45 	 2.8 	
-83 	 -353 	 -924 	2.31 	 -2.625 	 2.345 	
-84 	 -358 	 -923 	1.855 	 -2.66 	 1.505 	
-86 	 -363 	 -922 	1.33 	 -2.66 	 0.49 	
-84 	 -367 	 -916 	1.05 	 -2.66 	 -0.63 	
-88 	 -373 	 -913 	0.7 	 -2.695 	 -1.82 	
-88 	 -376 	 -911 	0.35 	 -2.73 	 -2.8 	
-87 	 -375 	 -909 	-0.035 	 -2.695 	 -3.57 	
-86 	 -374 	 -908 	-0.175 	 -2.8 	 -4.025 	
-89 	 -368 	 -906 	-0.35 	 -2.835 	 -4.06 	
-88 	 -367 	 -906 	-0.63 	 -2.905 	 -3.64 	
-89 	 -364 	 -910 	-0.805 	 -3.08 	 -2.73 	
-89 	 -360 	 -912 	-0.875 	 -3.22 	 -1.47 	
-90 	 -354 	 -914 	-1.085 	 -3.29 	 0.105 	
-86 	 -355 	 -916 	-1.365 	 -3.5 	 1.82 	
-89 	 -353 	 -918 	-1.54 	 -3.57 	 3.535 	
-98 	 -350 	 -923 	-1.68 	 -3.745 	 5.04 	
-96 	 -352 	 -926 	-1.96 	 -3.85 	 6.3 	
-101 	 -353 	 -927 	-2.135 	 -4.025 	 7.07 	
-105 	 -362 	 -929 	-2.345 	 -4.095 	 7.315 	
-108 	 -368 	 -928 	-2.45 	 -4.2 	 6.965 	
-105 	 -375 	 -927 	-2.485 	 -4.41 	 5.915 	
-104 	 -384 	 -926 	-2.52 	 -4.515 	 4.375 	
-104 	 -388 	 -922 	-2.485 	 -4.515 	 2.52 	
-101 	 -395 	 -920 	-2.45 	 -4.445 	 0.525 	
-102 	 -397 	 -918 	-2.205 	 -4.585 	 -1.33 	
-101 	 -397 	 -917 	-1.96 	 -4.62 	 -2.835 	
-104 	 -392 	 -916 	-1.68 	 -4.655 	 -3.885 	
-108 	 -387 	 -915 	-1.26 	 -4.76 	 -4.34 	
-107 	 -381 	 -915 	-1.015 	 -4.83 	 -4.27 	
-105 	 -377 	 -914 	-0.77 	 -4.935 	 -3.535 	
-107 	 -372 	 -915 	-0.455 	 -5.005 	 -2.31 	
-105 	 -365 	 -919 	-0.105 	 -5.215 	 -0.735 	
-103 	 -363 	 -920 	0.14 	 -5.32 	 0.91 	
-97 	 -362 	 -922 	0.455 	 -5.39 	 2.625 	
-99 	 -365 	 -925 	0.665 	 -5.425 	 4.095 	
-100 	 -360 	 -930 	0.945 	 -5.53 	 5.11 	
-97 	 -359 	 -935 	1.05 	 -5.39 	 5.705 	
-92 	 -365 	 -935 	1.225 	 -5.39 	 5.74 	
-89 	 -375 	 -935 	1.47 	 -5.25 	 5.18 	
-85 	 -381 	 -930 	1.785 	 -5.145 	 4.13 	
-81 	 -390 	 -927 	1.96 	 -5.005 	 2.695 	
-83 	 -387 	 -927 	2.31 	 -4.76 	 1.085 	
-87 	 -393 	 -926 	2.59 	 -4.55 	 -0.665 	
-85 	 -392 	 -925 	2.94 	 -4.34 	 -2.135 	
-89 	 -395 	 -925 	3.36 	 -4.2 	 -3.5 	
-92 	 -388 	 -923 	3.815 	 -4.06 	 -4.41 	
-91 	 -386 	 -920 	4.025 	 -3.885 	 -4.865 	
-92 	 -385 	 -921 	4.305 	 -3.815 	 -4.9 	
-92 	 -383 	 -920 	4.585 	 -3.78 	 -4.305 	
-97 	 -375 	 -921 	4.83 	 -3.675 	 -3.36 	
-102 	 -367 	 -925 	4.9 	 -3.745 	 -2.17 	
-101 	 -369 	 -926 	4.935 	 -3.85 	 -0.525 	
-111 	 -363 	 -935 	5.075 	 -3.92 	 1.05 	
-119 	 -351 	 -942 	5.145 	 -3.99 	 2.52 	
-121 	 -345 	 -943 	4.9 	 -4.095 	 3.71 	
-120 	 -347 	 -940 	4.62 	 -4.41 	 4.13 	
-110 	 -367 	 -939 	4.34 	 -4.445 	 4.165 	
-110 	 -371 	 -937 	4.095 	 -4.585 	 3.465 	
-108 	 -371 	 -938 	3.92 	 -4.725 	 2.24 	
-109 	 -372 	 -932 	3.535 	 -4.725 	 0.805 	
-112 	 -376 	 -925 	3.325 	 -4.725 	 -0.735 	
-117 	 -382 	 -919 	3.115 	 -4.865 	 -2.17 	
-115 	 -383 	 -918 	2.905 	 -5.075 	 -3.395 	
-133 	 -374 	 -901 	2.66 	 -5.355 	 -4.445 	
-114 	 -377 	 -916 	2.135 	 -5.775 	 -5.18 	
-127 	 -387 	 -905 	1.785 	 -5.775 	 -5.565 	
-137 	 -382 	 -902 	1.435 	 -6.195 	 -6.16 	
-133 	 -372 	 -906 	0.91 	 -6.72 	 -6.58 	
-119 	 -366 	 -915 	0.21 	 -7.14 	 -7.07 	
-119 	 -363 	 -924 	-0.385 	 -7.42 	 -7.525 	
-128 	 -355 	 -931 	-1.015 	 -7.77 	 -7.805 	
-131 	 -339 	 -935 	-1.785 	 -8.19 	 -8.085 	
-128 	 -330 	 -934 	-2.625 	 -8.855 	 -7.84 	
-128 	 -326 	 -933 	-3.71 	 -9.205 	 -7.21 	
-136 	 -320 	 -931 	-4.62 	 -9.625 	 -6.195 	
-142 	 -322 	 -929 	-5.635 	 -10.08 	 -4.795 	
-139 	 -319 	 -931 	-6.44 	 -10.71 	 -3.465 	
-134 	 -331 	 -924 	-7.35 	 -11.13 	 -1.925 	
-130 	 -346 	 -919 	-8.155 	 -11.48 	 -0.875 	
-123 	 -358 	 -914 	-8.82 	 -11.935 	 -0.14 	
-111 	 -367 	 -911 	-9.38 	 -12.075 	 0.035 	
-105 	 -368 	 -913 	-9.835 	 -12.18 	 -0.28 	
-99 	 -379 	 -910 	-10.15 	 -12.285 	 -0.56 	
-99 	 -376 	 -907 	-10.465 	 -12.25 	 -1.435 	
-94 	 -371 	 -907 	-10.64 	 -12.355 	 -2.065 	
-89 	 -373 	 -911 	-10.85 	 -12.215 	 -2.45 	
-95 	 -373 	 -912 	-10.92 	 -11.97 	 -2.73 	
